Method:,erol,,
Host Date-Time:,7/12/23 @ 13:43:54,,
Header Version:,1,,
System Temp (C):,37.41,,
Detector Temp (C):,23.18,,
Humidity (%):,22.19,,
Lamp PD:,3579,,
Shift Vector Coefficients:,-4.80707,0.053312,-0.000138677,,
Pixel to Wavelength Coefficients:,1763.6,-0.910608,-0.000244451,,
Serial Number:,6110061,,
Scan Config Name:,erol,,
Scan Config Type:,Slew,,
Section 1,,
Start wavelength (nm):,900,,
End wavelength (nm):,1700,,
Pattern Pixel Width (nm):,  11.71,,,,
Exposure (ms):,  0.635,,,,
Digital Resolution:,228,,
Num Repeats:,1,,
PGA Gain:,64,,
Total Measurement Time in sec:,  1.592,,
Wavelength (nm),Absorbance (AU),Reference Signal (unitless),Sample Signal (unitless)
901.370984,-0.452913,22318.000000,63324.000000
905.248306,-0.443938,26694.000000,74191.000000
909.121227,-0.438758,30240.000000,83050.000000
912.989749,-0.414774,35053.000000,91096.000000
918.140932,-0.411257,39668.000000,102258.000000
921.999187,-0.407072,44171.000000,112774.000000
925.853041,-0.406565,49463.000000,126138.000000
929.702495,-0.409350,55176.000000,141612.000000
933.547549,-0.405746,62603.000000,159346.000000
937.388203,-0.403997,70557.000000,178870.000000
941.224457,-0.396718,79215.000000,197481.000000
946.332618,-0.390972,90003.000000,221426.000000
950.158605,-0.390794,97001.000000,238545.000000
953.980191,-0.385878,104340.000000,253705.000000
957.797378,-0.385232,111157.000000,269879.000000
961.610165,-0.387702,117414.000000,286696.000000
965.418551,-0.388142,124361.000000,303967.000000
969.222537,-0.386343,131496.000000,320078.000000
974.287675,-0.387817,140925.000000,344195.000000
978.081394,-0.389809,148023.000000,363194.000000
981.870713,-0.389932,155197.000000,380904.000000
985.655632,-0.393545,162010.000000,400947.000000
989.436151,-0.391571,170019.000000,418860.000000
993.212270,-0.392668,176266.000000,435348.000000
998.240251,-0.392706,184964.000000,456871.000000
1002.006103,-0.394516,190519.000000,472557.000000
1005.767554,-0.392184,196102.000000,483800.000000
1009.524606,-0.392424,200098.000000,493931.000000
1013.277258,-0.390901,204164.000000,502204.000000
1017.025509,-0.391408,206631.000000,508866.000000
1020.769360,-0.391690,209246.000000,515641.000000
1025.754318,-0.389338,211932.000000,519439.000000
1029.487902,-0.387843,213316.000000,521034.000000
1033.217086,-0.387917,213821.000000,522357.000000
1036.941870,-0.388149,213615.000000,522133.000000
1040.662255,-0.387436,213930.000000,522045.000000
1044.378238,-0.386878,213905.000000,521313.000000
1048.089822,-0.385315,213173.000000,517663.000000
1053.031756,-0.384971,211884.000000,514125.000000
1056.733073,-0.384256,211098.000000,511376.000000
1060.429990,-0.383349,209880.000000,507364.000000
1064.122506,-0.382838,209078.000000,504831.000000
1067.810623,-0.382985,208224.000000,502939.000000
1071.494339,-0.383109,206922.000000,499937.000000
1076.399116,-0.382604,206676.000000,498763.000000
1080.072566,-0.381415,206200.000000,496254.000000
1083.741615,-0.382164,205636.000000,495750.000000
1087.406264,-0.380347,205874.000000,494252.000000
1091.066513,-0.380826,205797.000000,494613.000000
1094.722362,-0.382278,205514.000000,495586.000000
1098.373811,-0.380881,205628.000000,494269.000000
1103.235565,-0.379592,206788.000000,495584.000000
1106.876747,-0.380454,206389.000000,495611.000000
1110.513529,-0.378604,206615.000000,494044.000000
1114.145910,-0.379261,206738.000000,495087.000000
1117.773892,-0.378753,206547.000000,494051.000000
1121.397473,-0.378244,207088.000000,494765.000000
1125.016654,-0.379526,206464.000000,494732.000000
1129.835385,-0.377689,207418.000000,494920.000000
1133.444299,-0.376173,207695.000000,493854.000000
1137.048813,-0.374290,208493.000000,493607.000000
1140.648927,-0.374575,208223.000000,493292.000000
1144.244641,-0.374797,208337.000000,493814.000000
1147.835955,-0.372097,208774.000000,491783.000000
1152.617529,-0.373548,208238.000000,492162.000000
1156.198576,-0.373128,208484.000000,492267.000000
1159.775223,-0.372208,208962.000000,492352.000000
1163.347470,-0.372696,209317.000000,493743.000000
1166.915316,-0.372679,209935.000000,495181.000000
1170.478763,-0.369463,211435.000000,495040.000000
1174.037809,-0.366775,213105.000000,495871.000000
1178.776359,-0.365187,214394.000000,497049.000000
1182.325139,-0.359656,217962.000000,498927.000000
1185.869518,-0.358953,220075.000000,502949.000000
1189.409497,-0.356105,222694.000000,505607.000000
1192.945076,-0.355015,224594.000000,508643.000000
1196.476255,-0.352645,226828.000000,510907.000000
1200.003034,-0.351994,229675.000000,516544.000000
1204.698561,-0.353715,232729.000000,525491.000000
1208.215073,-0.351429,235830.000000,529698.000000
1211.727185,-0.351740,238631.000000,536373.000000
1215.234896,-0.350699,241974.000000,542585.000000
1218.738208,-0.351378,245450.000000,551240.000000
1222.237119,-0.350560,248996.000000,558152.000000
1226.895489,-0.351047,254001.000000,570010.000000
1230.384134,-0.351659,257796.000000,579342.000000
1233.868378,-0.352569,261030.000000,587840.000000
1237.348222,-0.354334,264910.000000,599007.000000
1240.823666,-0.354970,269187.000000,609571.000000
1244.294710,-0.354625,274535.000000,621188.000000
1247.761354,-0.356153,278817.000000,633100.000000
1252.376701,-0.357529,285943.000000,651341.000000
1255.833078,-0.357433,292339.000000,665763.000000
1259.285055,-0.356813,298387.000000,678567.000000
1262.732632,-0.359385,303484.000000,694258.000000
1266.175808,-0.359895,308643.000000,706889.000000
1269.614584,-0.360631,313923.000000,720202.000000
1273.048961,-0.361062,319097.000000,732798.000000
1277.621284,-0.362810,324380.000000,747935.000000
1281.045394,-0.361897,329793.000000,758819.000000
1284.465103,-0.364370,333450.000000,771615.000000
1287.880412,-0.365165,337104.000000,781500.000000
1291.291321,-0.365443,340768.000000,790500.000000
1294.697830,-0.365260,344605.000000,799064.000000
1299.232997,-0.366113,349244.000000,811413.000000
1302.629239,-0.365814,352441.000000,818277.000000
1306.021081,-0.365520,355144.000000,823994.000000
1309.408522,-0.365777,357732.000000,830491.000000
1312.791564,-0.365526,360160.000000,835644.000000
1316.170205,-0.366812,362173.000000,842806.000000
1319.544447,-0.366122,364403.000000,846651.000000
1324.036591,-0.366369,366317.000000,851581.000000
1327.400565,-0.368558,366589.000000,856519.000000
1330.760139,-0.366306,368623.000000,856817.000000
1334.115313,-0.368124,368498.000000,860121.000000
1337.466087,-0.366993,370046.000000,861487.000000
1340.812461,-0.367084,370709.000000,863211.000000
1344.154435,-0.366170,371502.000000,863239.000000
1348.603555,-0.365960,371615.000000,863085.000000
1351.935262,-0.365398,370997.000000,860534.000000
1355.262569,-0.363287,371791.000000,858194.000000
1358.585475,-0.362172,370879.000000,853894.000000
1361.903982,-0.361018,370539.000000,850847.000000
1365.218088,-0.358557,371657.000000,848593.000000
1369.630052,-0.356255,372397.000000,845787.000000
1372.933891,-0.354195,372524.000000,842072.000000
1376.233331,-0.353543,372314.000000,840334.000000
1379.528370,-0.353189,371243.000000,837235.000000
1382.819009,-0.353466,369231.000000,833228.000000
1386.105248,-0.353511,367705.000000,829870.000000
1389.387087,-0.352149,367073.000000,825851.000000
1393.756027,-0.350757,365715.000000,820163.000000
1397.027599,-0.349167,365152.000000,815907.000000
1400.294771,-0.347684,365097.000000,813003.000000
1403.557542,-0.345245,364333.000000,806758.000000
1406.815914,-0.341375,365413.000000,801971.000000
1410.069885,-0.337896,365734.000000,796271.000000
1413.319456,-0.334372,364947.000000,788137.000000
1417.645373,-0.328203,365539.000000,778281.000000
1420.884678,-0.323734,365230.000000,769662.000000
1424.119582,-0.319048,365533.000000,762034.000000
1427.350086,-0.316112,364906.000000,755601.000000
1430.576190,-0.312138,365583.000000,750109.000000
1433.797894,-0.308304,365648.000000,743647.000000
1437.015198,-0.305440,365698.000000,738860.000000
1441.298091,-0.302771,364890.000000,732711.000000
1444.505128,-0.301270,364741.000000,729885.000000
1447.707765,-0.299805,364393.000000,726734.000000
1450.906001,-0.299543,363044.000000,723606.000000
1454.099838,-0.296860,362635.000000,718339.000000
1457.289274,-0.295258,361653.000000,713756.000000
1461.535011,-0.292890,360303.000000,707226.000000
1464.714180,-0.291327,358064.000000,700305.000000
1467.888950,-0.288251,356949.000000,693197.000000
1471.059319,-0.286015,355912.000000,687635.000000
1474.225288,-0.283682,353737.000000,679771.000000
1477.386857,-0.281010,352477.000000,673195.000000
1480.544025,-0.280804,349693.000000,667561.000000
1484.746739,-0.278769,347943.000000,661115.000000
1487.893641,-0.279042,344781.000000,655519.000000
1491.036142,-0.279590,342531.000000,652064.000000
1494.174244,-0.279942,340170.000000,648094.000000
1497.307945,-0.280595,337701.000000,644358.000000
1500.437247,-0.281928,334446.000000,640109.000000
1503.562148,-0.283329,331876.000000,637243.000000
1507.721838,-0.284737,327918.000000,631687.000000
1510.836473,-0.285986,324967.000000,627806.000000
1513.946707,-0.288179,321718.000000,624675.000000
1517.052541,-0.287581,319073.000000,618687.000000
1520.153975,-0.289755,315575.000000,614975.000000
1523.251008,-0.291841,311252.000000,609471.000000
1527.373542,-0.293047,306492.000000,601819.000000
1530.460309,-0.292516,302471.000000,593198.000000
1533.542676,-0.292743,298873.000000,586448.000000
1536.620642,-0.293367,294593.000000,578881.000000
1539.694209,-0.294274,290524.000000,572079.000000
1542.763375,-0.295809,285805.000000,564779.000000
1545.828141,-0.295992,281854.000000,557206.000000
1549.907652,-0.299819,274841.000000,548151.000000
1552.962151,-0.299784,270515.000000,539480.000000
1556.012250,-0.302319,265203.000000,531983.000000
1559.057949,-0.305276,260042.000000,525194.000000
1562.099248,-0.305624,255973.000000,517390.000000
1565.136147,-0.306766,250523.000000,507707.000000
1568.168646,-0.307482,245616.000000,498584.000000
1572.205133,-0.309493,238774.000000,486945.000000
1575.227365,-0.311831,234179.000000,480152.000000
1578.245196,-0.312414,228934.000000,470029.000000
1581.258628,-0.314975,223478.000000,461540.000000
1584.267659,-0.315773,218239.000000,451550.000000
1587.272290,-0.317984,213357.000000,443701.000000
1591.271621,-0.321254,206678.000000,433060.000000
1594.265985,-0.324715,200655.000000,423804.000000
1597.255949,-0.326617,196105.000000,416012.000000
1600.241513,-0.330523,191413.000000,409727.000000
1603.222677,-0.333077,186271.000000,401072.000000
1606.199441,-0.337281,181567.000000,394746.000000
1609.171805,-0.339649,176656.000000,386169.000000
1613.128112,-0.344260,170106.000000,375820.000000
1616.090209,-0.348293,165195.000000,368375.000000
1619.047905,-0.351758,160661.000000,361134.000000
1622.001202,-0.357964,154762.000000,352881.000000
1624.950098,-0.361268,149284.000000,342990.000000
1627.894595,-0.368626,144304.000000,337213.000000
1630.834691,-0.374414,138573.000000,328165.000000
1634.747975,-0.381770,131373.000000,316429.000000
1637.677804,-0.389154,126061.000000,308841.000000
1640.603233,-0.398245,120043.000000,300318.000000
1643.524262,-0.407200,114222.000000,291709.000000
1646.440891,-0.412467,109595.000000,283307.000000
1649.353120,-0.422304,104146.000000,275389.000000
1653.229247,-0.410271,102337.000000,263211.000000
1656.131209,-0.404395,100118.000000,254043.000000
1659.028770,-0.410700,95076.000000,244777.000000
1661.921932,-0.399679,93881.000000,235644.000000
1664.810693,-0.395456,90392.000000,224691.000000
1667.695055,-0.392770,85969.000000,212379.000000
1670.575016,-0.384564,82225.000000,199328.000000
1674.408120,-0.353610,78925.000000,178166.000000
1677.277814,-inf,0.000000,160534.000000
1680.143108,-inf,0.000000,141808.000000
1683.004002,nan,-2147483648.000000,123865.000000
1685.860496,nan,-2147483648.000000,105122.000000
1688.712590,nan,-2147483648.000000,88334.000000
1691.560283,nan,-2147483648.000000,74176.000000
1695.350364,nan,-2147483648.000000,57758.000000
1698.187790,nan,-2147483648.000000,48429.000000
1701.020817,-inf,0.000000,41066.000000
