Method:,erol,,
Host Date-Time:,7/12/23 @ 13:47:23,,
Header Version:,1,,
System Temp (C):,38.12,,
Detector Temp (C):,23.68,,
Humidity (%):,21.24,,
Lamp PD:,3584,,
Shift Vector Coefficients:,-4.80707,0.053312,-0.000138677,,
Pixel to Wavelength Coefficients:,1763.6,-0.910608,-0.000244451,,
Serial Number:,6110061,,
Scan Config Name:,erol,,
Scan Config Type:,Slew,,
Section 1,,
Start wavelength (nm):,900,,
End wavelength (nm):,1700,,
Pattern Pixel Width (nm):,  11.71,,,,
Exposure (ms):,  0.635,,,,
Digital Resolution:,228,,
Num Repeats:,1,,
PGA Gain:,64,,
Total Measurement Time in sec:,  1.593,,
Wavelength (nm),Absorbance (AU),Reference Signal (unitless),Sample Signal (unitless)
901.370984,-0.148081,22318.000000,31386.000000
905.248306,-0.139434,26694.000000,36800.000000
909.121227,-0.126745,30240.000000,40488.000000
912.989749,-0.116349,35053.000000,45822.000000
918.140932,-0.112109,39668.000000,51351.000000
921.999187,-0.101084,44171.000000,55747.000000
925.853041,-0.104839,49463.000000,62968.000000
929.702495,-0.111656,55176.000000,71352.000000
933.547549,-0.114722,62603.000000,81530.000000
937.388203,-0.107201,70557.000000,90311.000000
941.224457,-0.108065,79215.000000,101595.000000
946.332618,-0.104784,90003.000000,114562.000000
950.158605,-0.104863,97001.000000,123492.000000
953.980191,-0.101978,104340.000000,131956.000000
957.797378,-0.101662,111157.000000,140475.000000
961.610165,-0.105786,117414.000000,149798.000000
965.418551,-0.108379,124361.000000,159611.000000
969.222537,-0.106030,131496.000000,167858.000000
974.287675,-0.108146,140925.000000,180773.000000
978.081394,-0.112519,148023.000000,191800.000000
981.870713,-0.114580,155197.000000,202052.000000
985.655632,-0.118089,162010.000000,212633.000000
989.436151,-0.116928,170019.000000,222549.000000
993.212270,-0.118956,176266.000000,231806.000000
998.240251,-0.123260,184964.000000,245667.000000
1002.006103,-0.122302,190519.000000,252488.000000
1005.767554,-0.121833,196102.000000,259606.000000
1009.524606,-0.122506,200098.000000,265307.000000
1013.277258,-0.122289,204164.000000,270563.000000
1017.025509,-0.124934,206631.000000,275505.000000
1020.769360,-0.122862,209246.000000,277664.000000
1025.754318,-0.121000,211932.000000,280025.000000
1029.487902,-0.120612,213316.000000,281602.000000
1033.217086,-0.121713,213821.000000,282985.000000
1036.941870,-0.120879,213615.000000,282170.000000
1040.662255,-0.121159,213930.000000,282768.000000
1044.378238,-0.119509,213905.000000,281663.000000
1048.089822,-0.120427,213173.000000,281293.000000
1053.031756,-0.119659,211884.000000,279098.000000
1056.733073,-0.117079,211098.000000,276416.000000
1060.429990,-0.116761,209880.000000,274620.000000
1064.122506,-0.117274,209078.000000,273894.000000
1067.810623,-0.115541,208224.000000,271689.000000
1071.494339,-0.116818,206922.000000,270785.000000
1076.399116,-0.111748,206676.000000,267324.000000
1080.072566,-0.112673,206200.000000,267277.000000
1083.741615,-0.112024,205636.000000,266148.000000
1087.406264,-0.109949,205874.000000,265186.000000
1091.066513,-0.109702,205797.000000,264936.000000
1094.722362,-0.108955,205514.000000,264117.000000
1098.373811,-0.110029,205628.000000,264918.000000
1103.235565,-0.105483,206788.000000,263638.000000
1106.876747,-0.107522,206389.000000,264368.000000
1110.513529,-0.105851,206615.000000,263641.000000
1114.145910,-0.105329,206738.000000,263481.000000
1117.773892,-0.105249,206547.000000,263189.000000
1121.397473,-0.102131,207088.000000,261991.000000
1125.016654,-0.103129,206464.000000,261802.000000
1129.835385,-0.099238,207418.000000,260666.000000
1133.444299,-0.098098,207695.000000,260330.000000
1137.048813,-0.098256,208493.000000,261425.000000
1140.648927,-0.096724,208223.000000,260167.000000
1144.244641,-0.095744,208337.000000,259723.000000
1147.835955,-0.094759,208774.000000,259678.000000
1152.617529,-0.094502,208238.000000,258858.000000
1156.198576,-0.094427,208484.000000,259119.000000
1159.775223,-0.094809,208962.000000,259942.000000
1163.347470,-0.093098,209317.000000,259360.000000
1166.915316,-0.093304,209935.000000,260249.000000
1170.478763,-0.089166,211435.000000,259623.000000
1174.037809,-0.088792,213105.000000,261448.000000
1178.776359,-0.087032,214394.000000,261966.000000
1182.325139,-0.081869,217962.000000,263178.000000
1185.869518,-0.079852,220075.000000,264498.000000
1189.409497,-0.076918,222694.000000,265844.000000
1192.945076,-0.079127,224594.000000,269479.000000
1196.476255,-0.078180,226828.000000,271567.000000
1200.003034,-0.075675,229675.000000,273394.000000
1204.698561,-0.075681,232729.000000,277033.000000
1208.215073,-0.077339,235830.000000,281798.000000
1211.727185,-0.076003,238631.000000,284269.000000
1215.234896,-0.076606,241974.000000,288652.000000
1218.738208,-0.076653,245450.000000,292830.000000
1222.237119,-0.077664,248996.000000,297753.000000
1226.895489,-0.077180,254001.000000,303400.000000
1230.384134,-0.076480,257796.000000,307437.000000
1233.868378,-0.077503,261030.000000,312028.000000
1237.348222,-0.078837,264910.000000,317640.000000
1240.823666,-0.079733,269187.000000,323435.000000
1244.294710,-0.079190,274535.000000,329449.000000
1247.761354,-0.080175,278817.000000,335347.000000
1252.376701,-0.082495,285943.000000,345760.000000
1255.833078,-0.082162,292339.000000,353223.000000
1259.285055,-0.082915,298387.000000,361156.000000
1262.732632,-0.084059,303484.000000,368294.000000
1266.175808,-0.086272,308643.000000,376468.000000
1269.614584,-0.085727,313923.000000,382428.000000
1273.048961,-0.087414,319097.000000,390244.000000
1277.621284,-0.088857,324380.000000,398026.000000
1281.045394,-0.089712,329793.000000,405465.000000
1284.465103,-0.091146,333450.000000,411317.000000
1287.880412,-0.092106,337104.000000,416745.000000
1291.291321,-0.092922,340768.000000,422066.000000
1294.697830,-0.092626,344605.000000,426528.000000
1299.232997,-0.094255,349244.000000,433894.000000
1302.629239,-0.094733,352441.000000,438348.000000
1306.021081,-0.095257,355144.000000,442244.000000
1309.408522,-0.096407,357732.000000,446647.000000
1312.791564,-0.095032,360160.000000,448257.000000
1316.170205,-0.096163,362173.000000,451938.000000
1319.544447,-0.097147,364403.000000,455752.000000
1324.036591,-0.098771,366317.000000,459863.000000
1327.400565,-0.100137,366589.000000,461654.000000
1330.760139,-0.099791,368623.000000,463846.000000
1334.115313,-0.102278,368498.000000,466351.000000
1337.466087,-0.101887,370046.000000,467889.000000
1340.812461,-0.102604,370709.000000,469502.000000
1344.154435,-0.102707,371502.000000,470618.000000
1348.603555,-0.101421,371615.000000,469369.000000
1351.935262,-0.104173,370997.000000,471567.000000
1355.262569,-0.102121,371791.000000,470349.000000
1358.585475,-0.102084,370879.000000,469155.000000
1361.903982,-0.102074,370539.000000,468714.000000
1365.218088,-0.099468,371657.000000,467316.000000
1369.630052,-0.099658,372397.000000,468451.000000
1372.933891,-0.097572,372524.000000,466365.000000
1376.233331,-0.096365,372314.000000,464809.000000
1379.528370,-0.097440,371243.000000,464620.000000
1382.819009,-0.096698,369231.000000,461314.000000
1386.105248,-0.097843,367705.000000,460620.000000
1389.387087,-0.097827,367073.000000,459811.000000
1393.756027,-0.096591,365715.000000,456808.000000
1397.027599,-0.096102,365152.000000,455592.000000
1400.294771,-0.093740,365097.000000,453052.000000
1403.557542,-0.094800,364333.000000,453209.000000
1406.815914,-0.091912,365413.000000,451540.000000
1410.069885,-0.090235,365734.000000,450195.000000
1413.319456,-0.087545,364947.000000,446452.000000
1417.645373,-0.083122,365539.000000,442645.000000
1420.884678,-0.081543,365230.000000,440666.000000
1424.119582,-0.077950,365533.000000,437398.000000
1427.350086,-0.076916,364906.000000,435609.000000
1430.576190,-0.074563,365583.000000,434059.000000
1433.797894,-0.072072,365648.000000,431653.000000
1437.015198,-0.070130,365698.000000,429786.000000
1441.298091,-0.069003,364890.000000,427725.000000
1444.505128,-0.068784,364741.000000,427335.000000
1447.707765,-0.067470,364393.000000,425638.000000
1450.906001,-0.066172,363044.000000,422796.000000
1454.099838,-0.065710,362635.000000,421871.000000
1457.289274,-0.063717,361653.000000,418802.000000
1461.535011,-0.062173,360303.000000,415758.000000
1464.714180,-0.061562,358064.000000,412594.000000
1467.888950,-0.060489,356949.000000,410294.000000
1471.059319,-0.057089,355912.000000,405912.000000
1474.225288,-0.056681,353737.000000,403052.000000
1477.386857,-0.054438,352477.000000,399548.000000
1480.544025,-0.056258,349693.000000,398057.000000
1484.746739,-0.053411,347943.000000,393477.000000
1487.893641,-0.055589,344781.000000,391861.000000
1491.036142,-0.053982,342531.000000,387866.000000
1494.174244,-0.054531,340170.000000,385680.000000
1497.307945,-0.055507,337701.000000,383742.000000
1500.437247,-0.056978,334446.000000,381333.000000
1503.562148,-0.058297,331876.000000,379553.000000
1507.721838,-0.058842,327918.000000,375498.000000
1510.836473,-0.060070,324967.000000,373172.000000
1513.946707,-0.061354,321718.000000,370535.000000
1517.052541,-0.059808,319073.000000,366183.000000
1520.153975,-0.062024,315575.000000,364021.000000
1523.251008,-0.063521,311252.000000,360274.000000
1527.373542,-0.064461,306492.000000,355533.000000
1530.460309,-0.066258,302471.000000,352324.000000
1533.542676,-0.065646,298873.000000,347642.000000
1536.620642,-0.066582,294593.000000,343403.000000
1539.694209,-0.067518,290524.000000,339391.000000
1542.763375,-0.070201,285805.000000,335947.000000
1545.828141,-0.069738,281854.000000,330950.000000
1549.907652,-0.073085,274841.000000,325212.000000
1552.962151,-0.073725,270515.000000,320565.000000
1556.012250,-0.076382,265203.000000,316199.000000
1559.057949,-0.077512,260042.000000,310853.000000
1562.099248,-0.078086,255973.000000,306394.000000
1565.136147,-0.081261,250523.000000,302071.000000
1568.168646,-0.083089,245616.000000,297403.000000
1572.205133,-0.084138,238774.000000,289818.000000
1575.227365,-0.084864,234179.000000,284716.000000
1578.245196,-0.085553,228934.000000,278781.000000
1581.258628,-0.089812,223478.000000,274819.000000
1584.267659,-0.092846,218239.000000,270258.000000
1587.272290,-0.094214,213357.000000,265046.000000
1591.271621,-0.096881,206678.000000,258330.000000
1594.265985,-0.100674,200655.000000,253002.000000
1597.255949,-0.103489,196105.000000,248873.000000
1600.241513,-0.103937,191413.000000,243169.000000
1603.222677,-0.106079,186271.000000,237807.000000
1606.199441,-0.111937,181567.000000,234949.000000
1609.171805,-0.113024,176656.000000,229167.000000
1613.128112,-0.117198,170106.000000,222801.000000
1616.090209,-0.119786,165195.000000,217662.000000
1619.047905,-0.122367,160661.000000,212950.000000
1622.001202,-0.127818,154762.000000,207722.000000
1624.950098,-0.132034,149284.000000,202324.000000
1627.894595,-0.135223,144304.000000,197016.000000
1630.834691,-0.140594,138573.000000,191546.000000
1634.747975,-0.147493,131373.000000,184501.000000
1637.677804,-0.153750,126061.000000,179610.000000
1640.603233,-0.162715,120043.000000,174603.000000
1643.524262,-0.167681,114222.000000,168047.000000
1646.440891,-0.171487,109595.000000,162659.000000
1649.353120,-0.179690,104146.000000,157519.000000
1653.229247,-0.168752,102337.000000,150933.000000
1656.131209,-0.161739,100118.000000,145295.000000
1659.028770,-0.168609,95076.000000,140178.000000
1661.921932,-0.150836,93881.000000,132866.000000
1664.810693,-0.146064,90392.000000,126530.000000
1667.695055,-0.143545,85969.000000,119643.000000
1670.575016,-0.134509,82225.000000,112076.000000
1674.408120,-0.107962,78925.000000,101199.000000
1677.277814,-inf,0.000000,91182.000000
1680.143108,-inf,0.000000,80524.000000
1683.004002,nan,-2147483648.000000,69532.000000
1685.860496,nan,-2147483648.000000,60560.000000
1688.712590,nan,-2147483648.000000,50367.000000
1691.560283,nan,-2147483648.000000,41730.000000
1695.350364,nan,-2147483648.000000,33314.000000
1698.187790,nan,-2147483648.000000,27493.000000
1701.020817,-inf,0.000000,24035.000000
