Method:,erol,,
Host Date-Time:,7/12/23 @ 13:45:5,,
Header Version:,1,,
System Temp (C):,37.81,,
Detector Temp (C):,21.77,,
Humidity (%):,21.81,,
Lamp PD:,3573,,
Shift Vector Coefficients:,-4.80707,0.053312,-0.000138677,,
Pixel to Wavelength Coefficients:,1763.6,-0.910608,-0.000244451,,
Serial Number:,6110061,,
Scan Config Name:,erol,,
Scan Config Type:,Slew,,
Section 1,,
Start wavelength (nm):,900,,
End wavelength (nm):,1700,,
Pattern Pixel Width (nm):,  11.71,,,,
Exposure (ms):,  0.635,,,,
Digital Resolution:,228,,
Num Repeats:,1,,
PGA Gain:,64,,
Total Measurement Time in sec:,  1.594,,
Wavelength (nm),Absorbance (AU),Reference Signal (unitless),Sample Signal (unitless)
901.370984,-0.452027,22318.000000,63195.000000
905.248306,-0.440777,26694.000000,73653.000000
909.121227,-0.434089,30240.000000,82162.000000
912.989749,-0.410072,35053.000000,90115.000000
918.140932,-0.400903,39668.000000,99849.000000
921.999187,-0.391827,44171.000000,108884.000000
925.853041,-0.389917,49463.000000,121394.000000
929.702495,-0.382832,55176.000000,133224.000000
933.547549,-0.372650,62603.000000,147654.000000
937.388203,-0.365845,70557.000000,163827.000000
941.224457,-0.353149,79215.000000,178631.000000
946.332618,-0.336921,90003.000000,195514.000000
950.158605,-0.329257,97001.000000,207030.000000
953.980191,-0.315920,104340.000000,215959.000000
957.797378,-0.307025,111157.000000,225404.000000
961.610165,-0.300986,117414.000000,234804.000000
965.418551,-0.293005,124361.000000,244168.000000
969.222537,-0.286138,131496.000000,254127.000000
974.287675,-0.277417,140925.000000,266935.000000
978.081394,-0.269937,148023.000000,275592.000000
981.870713,-0.264478,155197.000000,285339.000000
985.655632,-0.259288,162010.000000,294327.000000
989.436151,-0.252994,170019.000000,304433.000000
993.212270,-0.250367,176266.000000,313715.000000
998.240251,-0.242967,184964.000000,323634.000000
1002.006103,-0.241354,190519.000000,332118.000000
1005.767554,-0.233971,196102.000000,336088.000000
1009.524606,-0.230961,200098.000000,340568.000000
1013.277258,-0.228607,204164.000000,345610.000000
1017.025509,-0.226834,206631.000000,348361.000000
1020.769360,-0.223642,209246.000000,350186.000000
1025.754318,-0.219886,211932.000000,351627.000000
1029.487902,-0.217209,213316.000000,351749.000000
1033.217086,-0.217122,213821.000000,352511.000000
1036.941870,-0.216284,213615.000000,351492.000000
1040.662255,-0.213666,213930.000000,349895.000000
1044.378238,-0.212660,213905.000000,349045.000000
1048.089822,-0.212717,213173.000000,347896.000000
1053.031756,-0.212724,211884.000000,345798.000000
1056.733073,-0.212377,211098.000000,344240.000000
1060.429990,-0.210809,209880.000000,341020.000000
1064.122506,-0.213006,209078.000000,341440.000000
1067.810623,-0.213160,208224.000000,340166.000000
1071.494339,-0.212799,206922.000000,337758.000000
1076.399116,-0.214673,206676.000000,338815.000000
1080.072566,-0.215392,206200.000000,338595.000000
1083.741615,-0.218459,205636.000000,340062.000000
1087.406264,-0.217421,205874.000000,339643.000000
1091.066513,-0.217645,205797.000000,339691.000000
1094.722362,-0.219747,205514.000000,340870.000000
1098.373811,-0.221261,205628.000000,342250.000000
1103.235565,-0.219593,206788.000000,342861.000000
1106.876747,-0.223164,206389.000000,345025.000000
1110.513529,-0.222789,206615.000000,345105.000000
1114.145910,-0.221984,206738.000000,344671.000000
1117.773892,-0.224515,206547.000000,346365.000000
1121.397473,-0.225469,207088.000000,348036.000000
1125.016654,-0.228021,206464.000000,349032.000000
1129.835385,-0.227372,207418.000000,350121.000000
1133.444299,-0.229164,207695.000000,352038.000000
1137.048813,-0.227331,208493.000000,351903.000000
1140.648927,-0.230444,208223.000000,353975.000000
1144.244641,-0.231890,208337.000000,355350.000000
1147.835955,-0.232752,208774.000000,356803.000000
1152.617529,-0.236250,208238.000000,358765.000000
1156.198576,-0.237743,208484.000000,360426.000000
1159.775223,-0.237917,208962.000000,361397.000000
1163.347470,-0.239978,209317.000000,363733.000000
1166.915316,-0.240700,209935.000000,365414.000000
1170.478763,-0.239252,211435.000000,366800.000000
1174.037809,-0.239345,213105.000000,369776.000000
1178.776359,-0.241164,214394.000000,373574.000000
1182.325139,-0.236353,217962.000000,375607.000000
1185.869518,-0.235340,220075.000000,378365.000000
1189.409497,-0.234939,222694.000000,382514.000000
1192.945076,-0.233542,224594.000000,384539.000000
1196.476255,-0.232314,226828.000000,387267.000000
1200.003034,-0.232523,229675.000000,392317.000000
1204.698561,-0.233186,232729.000000,398141.000000
1208.215073,-0.231873,235830.000000,402228.000000
1211.727185,-0.231880,238631.000000,407012.000000
1215.234896,-0.230307,241974.000000,411221.000000
1218.738208,-0.231676,245450.000000,418446.000000
1222.237119,-0.229330,248996.000000,422204.000000
1226.895489,-0.228764,254001.000000,430130.000000
1230.384134,-0.228345,257796.000000,436135.000000
1233.868378,-0.229358,261030.000000,442638.000000
1237.348222,-0.228300,264910.000000,448124.000000
1240.823666,-0.229621,269187.000000,456746.000000
1244.294710,-0.226703,274535.000000,462701.000000
1247.761354,-0.228393,278817.000000,471750.000000
1252.376701,-0.227602,285943.000000,482927.000000
1255.833078,-0.226358,292339.000000,492317.000000
1259.285055,-0.225984,298387.000000,502069.000000
1262.732632,-0.225478,303484.000000,510051.000000
1266.175808,-0.226207,308643.000000,519593.000000
1269.614584,-0.224773,313923.000000,526740.000000
1273.048961,-0.225252,319097.000000,536012.000000
1277.621284,-0.225710,324380.000000,545462.000000
1281.045394,-0.223876,329793.000000,552227.000000
1284.465103,-0.224170,333450.000000,558729.000000
1287.880412,-0.225940,337104.000000,567158.000000
1291.291321,-0.227096,340768.000000,574850.000000
1294.697830,-0.226941,344605.000000,581116.000000
1299.232997,-0.226744,349244.000000,588671.000000
1302.629239,-0.226821,352441.000000,594165.000000
1306.021081,-0.226041,355144.000000,597648.000000
1309.408522,-0.227131,357732.000000,603516.000000
1312.791564,-0.227064,360160.000000,607519.000000
1316.170205,-0.226824,362173.000000,610577.000000
1319.544447,-0.227652,364403.000000,615508.000000
1324.036591,-0.228696,366317.000000,620230.000000
1327.400565,-0.230587,366589.000000,623399.000000
1330.760139,-0.229489,368623.000000,625275.000000
1334.115313,-0.230399,368498.000000,626375.000000
1337.466087,-0.230847,370046.000000,629655.000000
1340.812461,-0.230215,370709.000000,629866.000000
1344.154435,-0.229529,371502.000000,630217.000000
1348.603555,-0.229155,371615.000000,629866.000000
1351.935262,-0.229155,370997.000000,628818.000000
1355.262569,-0.227033,371791.000000,627093.000000
1358.585475,-0.227147,370879.000000,625719.000000
1361.903982,-0.226099,370539.000000,623638.000000
1365.218088,-0.223367,371657.000000,621597.000000
1369.630052,-0.221643,372397.000000,620368.000000
1372.933891,-0.221310,372524.000000,620103.000000
1376.233331,-0.219029,372314.000000,616507.000000
1379.528370,-0.218340,371243.000000,613760.000000
1382.819009,-0.218002,369231.000000,609959.000000
1386.105248,-0.218178,367705.000000,607684.000000
1389.387087,-0.216517,367073.000000,604323.000000
1393.756027,-0.215005,365715.000000,599995.000000
1397.027599,-0.213890,365152.000000,597536.000000
1400.294771,-0.211703,365097.000000,594444.000000
1403.557542,-0.210631,364333.000000,591738.000000
1406.815914,-0.207447,365413.000000,589157.000000
1410.069885,-0.204411,365734.000000,585566.000000
1413.319456,-0.201991,364947.000000,581060.000000
1417.645373,-0.196604,365539.000000,574828.000000
1420.884678,-0.193228,365230.000000,569894.000000
1424.119582,-0.189676,365533.000000,565722.000000
1427.350086,-0.186680,364906.000000,560869.000000
1430.576190,-0.183460,365583.000000,557758.000000
1433.797894,-0.180752,365648.000000,554390.000000
1437.015198,-0.178243,365698.000000,551271.000000
1441.298091,-0.176237,364890.000000,547519.000000
1444.505128,-0.174248,364741.000000,544794.000000
1447.707765,-0.172188,364393.000000,541699.000000
1450.906001,-0.171854,363044.000000,539279.000000
1454.099838,-0.169573,362635.000000,535849.000000
1457.289274,-0.167931,361653.000000,532382.000000
1461.535011,-0.165750,360303.000000,527737.000000
1464.714180,-0.164541,358064.000000,523000.000000
1467.888950,-0.163834,356949.000000,520523.000000
1471.059319,-0.159873,355912.000000,514299.000000
1474.225288,-0.158511,353737.000000,509556.000000
1477.386857,-0.156316,352477.000000,505181.000000
1480.544025,-0.155829,349693.000000,500629.000000
1484.746739,-0.152440,347943.000000,494252.000000
1487.893641,-0.153789,344781.000000,491284.000000
1491.036142,-0.152920,342531.000000,487102.000000
1494.174244,-0.152853,340170.000000,483670.000000
1497.307945,-0.151658,337701.000000,478840.000000
1500.437247,-0.152966,334446.000000,475655.000000
1503.562148,-0.153340,331876.000000,472406.000000
1507.721838,-0.153884,327918.000000,467358.000000
1510.836473,-0.154318,324967.000000,463615.000000
1513.946707,-0.154336,321718.000000,458999.000000
1517.052541,-0.152688,319073.000000,453501.000000
1520.153975,-0.152905,315575.000000,448753.000000
1523.251008,-0.152804,311252.000000,442503.000000
1527.373542,-0.151667,306492.000000,434596.000000
1530.460309,-0.149723,302471.000000,426979.000000
1533.542676,-0.148681,298873.000000,420889.000000
1536.620642,-0.147558,294593.000000,413790.000000
1539.694209,-0.145378,290524.000000,406032.000000
1542.763375,-0.145523,285805.000000,399570.000000
1545.828141,-0.141990,281854.000000,390854.000000
1549.907652,-0.141044,274841.000000,380299.000000
1552.962151,-0.138063,270515.000000,371753.000000
1556.012250,-0.137951,265203.000000,364359.000000
1559.057949,-0.135910,260042.000000,355593.000000
1562.099248,-0.132644,255973.000000,347407.000000
1565.136147,-0.132037,250523.000000,339535.000000
1568.168646,-0.128616,245616.000000,330273.000000
1572.205133,-0.124843,238774.000000,318295.000000
1575.227365,-0.121674,234179.000000,309900.000000
1578.245196,-0.119802,228934.000000,301656.000000
1581.258628,-0.115514,223478.000000,291574.000000
1584.267659,-0.114907,218239.000000,284341.000000
1587.272290,-0.110152,213357.000000,274953.000000
1591.271621,-0.106745,206678.000000,264265.000000
1594.265985,-0.105196,200655.000000,255650.000000
1597.255949,-0.102250,196105.000000,248164.000000
1600.241513,-0.099035,191413.000000,240440.000000
1603.222677,-0.096715,186271.000000,232734.000000
1606.199441,-0.092837,181567.000000,224840.000000
1609.171805,-0.091567,176656.000000,218120.000000
1613.128112,-0.086028,170106.000000,207371.000000
1616.090209,-0.083344,165195.000000,200143.000000
1619.047905,-0.079755,160661.000000,193048.000000
1622.001202,-0.080367,154762.000000,186222.000000
1624.950098,-0.077265,149284.000000,178352.000000
1627.894595,-0.075449,144304.000000,171683.000000
1630.834691,-0.076854,138573.000000,165399.000000
1634.747975,-0.073637,131373.000000,155648.000000
1637.677804,-0.073392,126061.000000,149270.000000
1640.603233,-0.079119,120043.000000,144031.000000
1643.524262,-0.077695,114222.000000,136598.000000
1646.440891,-0.070812,109595.000000,129004.000000
1649.353120,-0.074966,104146.000000,123768.000000
1653.229247,-0.056092,102337.000000,116446.000000
1656.131209,-0.043686,100118.000000,110713.000000
1659.028770,-0.036462,95076.000000,103403.000000
1661.921932,-0.021409,93881.000000,98625.000000
1664.810693,-0.010800,90392.000000,92668.000000
1667.695055,-0.004268,85969.000000,86818.000000
1670.575016,0.005726,82225.000000,81148.000000
1674.408120,0.042690,78925.000000,71536.000000
1677.277814,-inf,0.000000,64843.000000
1680.143108,-inf,0.000000,57188.000000
1683.004002,nan,-2147483648.000000,48617.000000
1685.860496,nan,-2147483648.000000,42429.000000
1688.712590,nan,-2147483648.000000,34082.000000
1691.560283,nan,-2147483648.000000,30065.000000
1695.350364,nan,-2147483648.000000,22865.000000
1698.187790,nan,-2147483648.000000,19000.000000
1701.020817,-inf,0.000000,16426.000000
