Method:,erol,,
Host Date-Time:,7/12/23 @ 13:43:48,,
Header Version:,1,,
System Temp (C):,37.37,,
Detector Temp (C):,22.9,,
Humidity (%):,22.19,,
Lamp PD:,3576,,
Shift Vector Coefficients:,-4.80707,0.053312,-0.000138677,,
Pixel to Wavelength Coefficients:,1763.6,-0.910608,-0.000244451,,
Serial Number:,6110061,,
Scan Config Name:,erol,,
Scan Config Type:,Slew,,
Section 1,,
Start wavelength (nm):,900,,
End wavelength (nm):,1700,,
Pattern Pixel Width (nm):,  11.71,,,,
Exposure (ms):,  0.635,,,,
Digital Resolution:,228,,
Num Repeats:,1,,
PGA Gain:,64,,
Total Measurement Time in sec:,  1.593,,
Wavelength (nm),Absorbance (AU),Reference Signal (unitless),Sample Signal (unitless)
901.370984,-0.546087,22318.000000,78477.000000
905.248306,-0.539526,26694.000000,92457.000000
909.121227,-0.535574,30240.000000,103790.000000
912.989749,-0.508038,35053.000000,112918.000000
918.140932,-0.513685,39668.000000,129457.000000
921.999187,-0.507659,44171.000000,142166.000000
925.853041,-0.509242,49463.000000,159780.000000
929.702495,-0.511808,55176.000000,179291.000000
933.547549,-0.509210,62603.000000,202211.000000
937.388203,-0.507382,70557.000000,226946.000000
941.224457,-0.501570,79215.000000,251407.000000
946.332618,-0.497014,90003.000000,282664.000000
950.158605,-0.496326,97001.000000,304160.000000
953.980191,-0.492094,104340.000000,324000.000000
957.797378,-0.489710,111157.000000,343279.000000
961.610165,-0.490589,117414.000000,363336.000000
965.418551,-0.489113,124361.000000,383528.000000
969.222537,-0.488519,131496.000000,404978.000000
974.287675,-0.489807,140925.000000,435306.000000
978.081394,-0.489488,148023.000000,456896.000000
981.870713,-0.488176,155197.000000,477594.000000
985.655632,-0.490220,162010.000000,500912.000000
989.436151,-0.487275,170019.000000,522122.000000
993.212270,-0.488996,176266.000000,543456.000000
998.240251,-0.487141,184964.000000,567843.000000
1002.006103,-0.485786,190519.000000,583075.000000
1005.767554,-0.485087,196102.000000,599196.000000
1009.524606,-0.484712,200098.000000,610878.000000
1013.277258,-0.482290,204164.000000,619825.000000
1017.025509,-0.482806,206631.000000,628061.000000
1020.769360,-0.482155,209246.000000,635056.000000
1025.754318,-0.479238,211932.000000,638902.000000
1029.487902,-0.478359,213316.000000,641775.000000
1033.217086,-0.477940,213821.000000,642674.000000
1036.941870,-0.477461,213615.000000,641347.000000
1040.662255,-0.476207,213930.000000,640441.000000
1044.378238,-0.475210,213905.000000,638897.000000
1048.089822,-0.474352,213173.000000,635454.000000
1053.031756,-0.473173,211884.000000,629900.000000
1056.733073,-0.472447,211098.000000,626515.000000
1060.429990,-0.471865,209880.000000,622065.000000
1064.122506,-0.470610,209078.000000,617900.000000
1067.810623,-0.469451,208224.000000,613736.000000
1071.494339,-0.470717,206922.000000,611679.000000
1076.399116,-0.468776,206676.000000,608228.000000
1080.072566,-0.468179,206200.000000,605993.000000
1083.741615,-0.468276,205636.000000,604470.000000
1087.406264,-0.467215,205874.000000,603694.000000
1091.066513,-0.466401,205797.000000,602337.000000
1094.722362,-0.467975,205514.000000,603693.000000
1098.373811,-0.468482,205628.000000,604734.000000
1103.235565,-0.465806,206788.000000,604409.000000
1106.876747,-0.467140,206389.000000,605099.000000
1110.513529,-0.466527,206615.000000,604908.000000
1114.145910,-0.466941,206738.000000,605845.000000
1117.773892,-0.468003,206547.000000,606767.000000
1121.397473,-0.466497,207088.000000,606250.000000
1125.016654,-0.468683,206464.000000,607474.000000
1129.835385,-0.465954,207418.000000,606458.000000
1133.444299,-0.466018,207695.000000,607357.000000
1137.048813,-0.464034,208493.000000,606911.000000
1140.648927,-0.464586,208223.000000,606897.000000
1144.244641,-0.464135,208337.000000,606599.000000
1147.835955,-0.463737,208774.000000,607314.000000
1152.617529,-0.464583,208238.000000,606936.000000
1156.198576,-0.463895,208484.000000,606691.000000
1159.775223,-0.462937,208962.000000,606743.000000
1163.347470,-0.462229,209317.000000,606783.000000
1166.915316,-0.461541,209935.000000,607612.000000
1170.478763,-0.459190,211435.000000,608649.000000
1174.037809,-0.456553,213105.000000,609743.000000
1178.776359,-0.455656,214394.000000,612165.000000
1182.325139,-0.449379,217962.000000,613422.000000
1185.869518,-0.447085,220075.000000,616107.000000
1189.409497,-0.443851,222694.000000,618813.000000
1192.945076,-0.443280,224594.000000,623273.000000
1196.476255,-0.442331,226828.000000,628098.000000
1200.003034,-0.440442,229675.000000,633221.000000
1204.698561,-0.439671,232729.000000,640504.000000
1208.215073,-0.439586,235830.000000,648911.000000
1211.727185,-0.439461,238631.000000,656429.000000
1215.234896,-0.438202,241974.000000,663699.000000
1218.738208,-0.437893,245450.000000,672753.000000
1222.237119,-0.437524,248996.000000,681893.000000
1226.895489,-0.437275,254001.000000,695201.000000
1230.384134,-0.438316,257796.000000,707281.000000
1233.868378,-0.439497,261030.000000,718104.000000
1237.348222,-0.441017,264910.000000,731334.000000
1240.823666,-0.441275,269187.000000,743583.000000
1244.294710,-0.440005,274535.000000,756141.000000
1247.761354,-0.441500,278817.000000,770582.000000
1252.376701,-0.442020,285943.000000,791224.000000
1255.833078,-0.441827,292339.000000,808562.000000
1259.285055,-0.441473,298387.000000,824619.000000
1262.732632,-0.442930,303484.000000,841523.000000
1266.175808,-0.443859,308643.000000,857660.000000
1269.614584,-0.443404,313923.000000,871419.000000
1273.048961,-0.443645,319097.000000,886274.000000
1277.621284,-0.445849,324380.000000,905531.000000
1281.045394,-0.444934,329793.000000,918704.000000
1284.465103,-0.445909,333450.000000,930978.000000
1287.880412,-0.447085,337104.000000,943732.000000
1291.291321,-0.447818,340768.000000,955601.000000
1294.697830,-0.447942,344605.000000,966637.000000
1299.232997,-0.448410,349244.000000,980707.000000
1302.629239,-0.449294,352441.000000,991700.000000
1306.021081,-0.449151,355144.000000,998977.000000
1309.408522,-0.449368,357732.000000,1006759.000000
1312.791564,-0.449147,360160.000000,1013076.000000
1316.170205,-0.449991,362173.000000,1020722.000000
1319.544447,-0.449849,364403.000000,1026669.000000
1324.036591,-0.450632,366317.000000,1033925.000000
1327.400565,-0.452342,366589.000000,1038774.000000
1330.760139,-0.450928,368623.000000,1041143.000000
1334.115313,-0.452327,368498.000000,1044148.000000
1337.466087,-0.451119,370046.000000,1045621.000000
1340.812461,-0.451554,370709.000000,1048546.000000
1344.154435,-0.450420,371502.000000,1048048.000000
1348.603555,-0.449592,371615.000000,1046370.000000
1351.935262,-0.449434,370997.000000,1044250.000000
1355.262569,-0.446177,371791.000000,1038666.000000
1358.585475,-0.445333,370879.000000,1034106.000000
1361.903982,-0.443782,370539.000000,1029476.000000
1365.218088,-0.440595,371657.000000,1025032.000000
1369.630052,-0.437379,372397.000000,1019495.000000
1372.933891,-0.436323,372524.000000,1017366.000000
1376.233331,-0.435092,372314.000000,1013914.000000
1379.528370,-0.434608,371243.000000,1009873.000000
1382.819009,-0.434521,369231.000000,1004197.000000
1386.105248,-0.433529,367705.000000,997766.000000
1389.387087,-0.432370,367073.000000,993397.000000
1393.756027,-0.431072,365715.000000,986768.000000
1397.027599,-0.429158,365152.000000,980915.000000
1400.294771,-0.426778,365097.000000,975408.000000
1403.557542,-0.424400,364333.000000,968051.000000
1406.815914,-0.419172,365413.000000,959304.000000
1410.069885,-0.414088,365734.000000,948971.000000
1413.319456,-0.409584,364947.000000,937160.000000
1417.645373,-0.401361,365539.000000,921075.000000
1420.884678,-0.395885,365230.000000,908765.000000
1424.119582,-0.390137,365533.000000,897561.000000
1427.350086,-0.385900,364906.000000,887321.000000
1430.576190,-0.381143,365583.000000,879283.000000
1433.797894,-0.376934,365648.000000,870958.000000
1437.015198,-0.373379,365698.000000,863975.000000
1441.298091,-0.370564,364890.000000,856497.000000
1444.505128,-0.367698,364741.000000,850516.000000
1447.707765,-0.365849,364393.000000,846094.000000
1450.906001,-0.363984,363044.000000,839351.000000
1454.099838,-0.361508,362635.000000,833639.000000
1457.289274,-0.359507,361653.000000,827559.000000
1461.535011,-0.355444,360303.000000,816792.000000
1464.714180,-0.354203,358064.000000,809401.000000
1467.888950,-0.351026,356949.000000,801000.000000
1471.059319,-0.347366,355912.000000,791969.000000
1474.225288,-0.345781,353737.000000,784263.000000
1477.386857,-0.343046,352477.000000,776564.000000
1480.544025,-0.341639,349693.000000,767937.000000
1484.746739,-0.339762,347943.000000,760799.000000
1487.893641,-0.340885,344781.000000,755837.000000
1491.036142,-0.339816,342531.000000,749059.000000
1494.174244,-0.339984,340170.000000,744184.000000
1497.307945,-0.340351,337701.000000,739407.000000
1500.437247,-0.342654,334446.000000,736174.000000
1503.562148,-0.343625,331876.000000,732151.000000
1507.721838,-0.345819,327918.000000,727083.000000
1510.836473,-0.347775,324967.000000,723793.000000
1513.946707,-0.349382,321718.000000,719212.000000
1517.052541,-0.349419,319073.000000,713361.000000
1520.153975,-0.351847,315575.000000,709495.000000
1523.251008,-0.353826,311252.000000,702972.000000
1527.373542,-0.354307,306492.000000,692988.000000
1530.460309,-0.355006,302471.000000,684998.000000
1533.542676,-0.355610,298873.000000,677793.000000
1536.620642,-0.356522,294593.000000,669491.000000
1539.694209,-0.357058,290524.000000,661058.000000
1542.763375,-0.358167,285805.000000,651984.000000
1545.828141,-0.359617,281854.000000,645121.000000
1549.907652,-0.363463,274841.000000,634665.000000
1552.962151,-0.365767,270515.000000,627998.000000
1556.012250,-0.368045,265203.000000,618904.000000
1559.057949,-0.370787,260042.000000,610704.000000
1562.099248,-0.371220,255973.000000,601747.000000
1565.136147,-0.373883,250523.000000,592558.000000
1568.168646,-0.375766,245616.000000,583476.000000
1572.205133,-0.379090,238774.000000,571580.000000
1575.227365,-0.380045,234179.000000,561814.000000
1578.245196,-0.382045,228934.000000,551767.000000
1581.258628,-0.384391,223478.000000,541534.000000
1584.267659,-0.386478,218239.000000,531386.000000
1587.272290,-0.389336,213357.000000,522929.000000
1591.271621,-0.391590,206678.000000,509195.000000
1594.265985,-0.397321,200655.000000,500923.000000
1597.255949,-0.399610,196105.000000,492151.000000
1600.241513,-0.402189,191413.000000,483237.000000
1603.222677,-0.408102,186271.000000,476702.000000
1606.199441,-0.411005,181567.000000,467780.000000
1609.171805,-0.415419,176656.000000,459777.000000
1613.128112,-0.420895,170106.000000,448347.000000
1616.090209,-0.425072,165195.000000,439611.000000
1619.047905,-0.428469,160661.000000,430903.000000
1622.001202,-0.434727,154762.000000,421106.000000
1624.950098,-0.440171,149284.000000,411324.000000
1627.894595,-0.444979,144304.000000,402029.000000
1630.834691,-0.452017,138573.000000,392370.000000
1634.747975,-0.460707,131373.000000,379501.000000
1637.677804,-0.465564,126061.000000,368252.000000
1640.603233,-0.476960,120043.000000,359995.000000
1643.524262,-0.484236,114222.000000,348326.000000
1646.440891,-0.489275,109595.000000,338116.000000
1649.353120,-0.498544,104146.000000,328236.000000
1653.229247,-0.485402,102337.000000,312921.000000
1656.131209,-0.481234,100118.000000,303212.000000
1659.028770,-0.486667,95076.000000,291567.000000
1661.921932,-0.471694,93881.000000,278145.000000
1664.810693,-0.469391,90392.000000,266392.000000
1667.695055,-0.464899,85969.000000,250750.000000
1670.575016,-0.458070,82225.000000,236088.000000
1674.408120,-0.426431,78925.000000,210691.000000
1677.277814,-inf,0.000000,189416.000000
1680.143108,-inf,0.000000,167592.000000
1683.004002,nan,-2147483648.000000,143877.000000
1685.860496,nan,-2147483648.000000,122968.000000
1688.712590,nan,-2147483648.000000,103272.000000
1691.560283,nan,-2147483648.000000,85773.000000
1695.350364,nan,-2147483648.000000,67613.000000
1698.187790,nan,-2147483648.000000,56079.000000
1701.020817,-inf,0.000000,48186.000000
