Method:,erol,,
Host Date-Time:,7/12/23 @ 13:44:11,,
Header Version:,1,,
System Temp (C):,37.51,,
Detector Temp (C):,22.64,,
Humidity (%):,22.19,,
Lamp PD:,3544,,
Shift Vector Coefficients:,-4.80707,0.053312,-0.000138677,,
Pixel to Wavelength Coefficients:,1763.6,-0.910608,-0.000244451,,
Serial Number:,6110061,,
Scan Config Name:,erol,,
Scan Config Type:,Slew,,
Section 1,,
Start wavelength (nm):,900,,
End wavelength (nm):,1700,,
Pattern Pixel Width (nm):,  11.71,,,,
Exposure (ms):,  0.635,,,,
Digital Resolution:,228,,
Num Repeats:,1,,
PGA Gain:,64,,
Total Measurement Time in sec:,  1.658,,
Wavelength (nm),Absorbance (AU),Reference Signal (unitless),Sample Signal (unitless)
901.370984,-0.301672,22318.000000,44702.000000
905.248306,-0.289038,26694.000000,51934.000000
909.121227,-0.287782,30240.000000,58663.000000
912.989749,-0.270600,35053.000000,65362.000000
918.140932,-0.260169,39668.000000,72212.000000
921.999187,-0.250964,44171.000000,78723.000000
925.853041,-0.249150,49463.000000,87787.000000
929.702495,-0.252554,55176.000000,98697.000000
933.547549,-0.247478,62603.000000,110681.000000
937.388203,-0.239564,70557.000000,122491.000000
941.224457,-0.234121,79215.000000,135809.000000
946.332618,-0.224415,90003.000000,150894.000000
950.158605,-0.218564,97001.000000,160450.000000
953.980191,-0.213200,104340.000000,170471.000000
957.797378,-0.206914,111157.000000,178999.000000
961.610165,-0.205925,117414.000000,188645.000000
965.418551,-0.202253,124361.000000,198124.000000
969.222537,-0.197379,131496.000000,207153.000000
974.287675,-0.191716,140925.000000,219131.000000
978.081394,-0.190069,148023.000000,229297.000000
981.870713,-0.187300,155197.000000,238882.000000
985.655632,-0.185598,162010.000000,248393.000000
989.436151,-0.179131,170019.000000,256820.000000
993.212270,-0.178646,176266.000000,265959.000000
998.240251,-0.173157,184964.000000,275578.000000
1002.006103,-0.172596,190519.000000,283488.000000
1005.767554,-0.169242,196102.000000,289550.000000
1009.524606,-0.167435,200098.000000,294224.000000
1013.277258,-0.163544,204164.000000,297525.000000
1017.025509,-0.164030,206631.000000,301457.000000
1020.769360,-0.161739,209246.000000,303666.000000
1025.754318,-0.159031,211932.000000,305652.000000
1029.487902,-0.157543,213316.000000,306596.000000
1033.217086,-0.155650,213821.000000,305985.000000
1036.941870,-0.156657,213615.000000,306400.000000
1040.662255,-0.153086,213930.000000,304339.000000
1044.378238,-0.152770,213905.000000,304082.000000
1048.089822,-0.151531,213173.000000,302178.000000
1053.031756,-0.150796,211884.000000,299843.000000
1056.733073,-0.150491,211098.000000,298521.000000
1060.429990,-0.151958,209880.000000,297803.000000
1064.122506,-0.149458,209078.000000,294962.000000
1067.810623,-0.149184,208224.000000,293572.000000
1071.494339,-0.149515,206922.000000,291959.000000
1076.399116,-0.148127,206676.000000,290681.000000
1080.072566,-0.149585,206200.000000,290987.000000
1083.741615,-0.149363,205636.000000,290043.000000
1087.406264,-0.150214,205874.000000,290948.000000
1091.066513,-0.148007,205797.000000,289365.000000
1094.722362,-0.152166,205514.000000,291748.000000
1098.373811,-0.152883,205628.000000,292392.000000
1103.235565,-0.150569,206788.000000,292479.000000
1106.876747,-0.153302,206389.000000,293757.000000
1110.513529,-0.152591,206615.000000,293598.000000
1114.145910,-0.153773,206738.000000,294573.000000
1117.773892,-0.155364,206547.000000,295381.000000
1121.397473,-0.155168,207088.000000,296021.000000
1125.016654,-0.156356,206464.000000,295938.000000
1129.835385,-0.158120,207418.000000,298515.000000
1133.444299,-0.157360,207695.000000,298391.000000
1137.048813,-0.155952,208493.000000,298568.000000
1140.648927,-0.157787,208223.000000,299444.000000
1144.244641,-0.158975,208337.000000,300429.000000
1147.835955,-0.158750,208774.000000,300903.000000
1152.617529,-0.161378,208238.000000,301952.000000
1156.198576,-0.160451,208484.000000,301664.000000
1159.775223,-0.162253,208962.000000,303613.000000
1163.347470,-0.162392,209317.000000,304226.000000
1166.915316,-0.162316,209935.000000,305071.000000
1170.478763,-0.160032,211435.000000,305639.000000
1174.037809,-0.159095,213105.000000,307389.000000
1178.776359,-0.159839,214394.000000,309779.000000
1182.325139,-0.152249,217962.000000,309478.000000
1185.869518,-0.152896,220075.000000,312944.000000
1189.409497,-0.148386,222694.000000,313397.000000
1192.945076,-0.147581,224594.000000,315485.000000
1196.476255,-0.146807,226828.000000,318056.000000
1200.003034,-0.145533,229675.000000,321105.000000
1204.698561,-0.146083,232729.000000,325787.000000
1208.215073,-0.144885,235830.000000,329218.000000
1211.727185,-0.143788,238631.000000,332288.000000
1215.234896,-0.141652,241974.000000,335290.000000
1218.738208,-0.141483,245450.000000,339974.000000
1222.237119,-0.140983,248996.000000,344489.000000
1226.895489,-0.139059,254001.000000,349860.000000
1230.384134,-0.137571,257796.000000,353873.000000
1233.868378,-0.138421,261030.000000,359014.000000
1237.348222,-0.137080,264910.000000,363227.000000
1240.823666,-0.137456,269187.000000,369411.000000
1244.294710,-0.135906,274535.000000,375408.000000
1247.761354,-0.134646,278817.000000,380159.000000
1252.376701,-0.136028,285943.000000,391118.000000
1255.833078,-0.132619,292339.000000,396740.000000
1259.285055,-0.131465,298387.000000,403873.000000
1262.732632,-0.133363,303484.000000,412571.000000
1266.175808,-0.132731,308643.000000,418974.000000
1269.614584,-0.131511,313923.000000,424946.000000
1273.048961,-0.130999,319097.000000,431441.000000
1277.621284,-0.132445,324380.000000,440047.000000
1281.045394,-0.130481,329793.000000,445371.000000
1284.465103,-0.130717,333450.000000,450555.000000
1287.880412,-0.131188,337104.000000,455986.000000
1291.291321,-0.133873,340768.000000,463801.000000
1294.697830,-0.131332,344605.000000,466287.000000
1299.232997,-0.131987,349244.000000,473278.000000
1302.629239,-0.132087,352441.000000,477720.000000
1306.021081,-0.130748,355144.000000,479902.000000
1309.408522,-0.132425,357732.000000,485269.000000
1312.791564,-0.132004,360160.000000,488090.000000
1316.170205,-0.132766,362173.000000,491679.000000
1319.544447,-0.133488,364403.000000,495530.000000
1324.036591,-0.134966,366317.000000,499831.000000
1327.400565,-0.135350,366589.000000,500644.000000
1330.760139,-0.133720,368623.000000,501536.000000
1334.115313,-0.135700,368498.000000,503657.000000
1337.466087,-0.136300,370046.000000,506472.000000
1340.812461,-0.136558,370709.000000,507681.000000
1344.154435,-0.136481,371502.000000,508677.000000
1348.603555,-0.135956,371615.000000,508217.000000
1351.935262,-0.136639,370997.000000,508170.000000
1355.262569,-0.134815,371791.000000,507124.000000
1358.585475,-0.133205,370879.000000,504008.000000
1361.903982,-0.133172,370539.000000,503507.000000
1365.218088,-0.132137,371657.000000,503824.000000
1369.630052,-0.130619,372397.000000,503066.000000
1372.933891,-0.129291,372524.000000,501701.000000
1376.233331,-0.129112,372314.000000,501212.000000
1379.528370,-0.128921,371243.000000,499550.000000
1382.819009,-0.129768,369231.000000,497813.000000
1386.105248,-0.127700,367705.000000,493400.000000
1389.387087,-0.126911,367073.000000,491658.000000
1393.756027,-0.127513,365715.000000,490519.000000
1397.027599,-0.125575,365152.000000,487583.000000
1400.294771,-0.125422,365097.000000,487338.000000
1403.557542,-0.124818,364333.000000,485642.000000
1406.815914,-0.121506,365413.000000,483381.000000
1410.069885,-0.118858,365734.000000,480865.000000
1413.319456,-0.118154,364947.000000,479053.000000
1417.645373,-0.113507,365539.000000,474723.000000
1420.884678,-0.111625,365230.000000,472271.000000
1424.119582,-0.108106,365533.000000,468849.000000
1427.350086,-0.107138,364906.000000,467002.000000
1430.576190,-0.104373,365583.000000,464899.000000
1433.797894,-0.101389,365648.000000,461798.000000
1437.015198,-0.099619,365698.000000,459983.000000
1441.298091,-0.098127,364890.000000,457392.000000
1444.505128,-0.096366,364741.000000,455355.000000
1447.707765,-0.094687,364393.000000,453166.000000
1450.906001,-0.094619,363044.000000,451417.000000
1454.099838,-0.093283,362635.000000,449524.000000
1457.289274,-0.092894,361653.000000,447905.000000
1461.535011,-0.090707,360303.000000,443992.000000
1464.714180,-0.090748,358064.000000,441274.000000
1467.888950,-0.089085,356949.000000,438219.000000
1471.059319,-0.086299,355912.000000,434152.000000
1474.225288,-0.085644,353737.000000,430848.000000
1477.386857,-0.083335,352477.000000,427037.000000
1480.544025,-0.082357,349693.000000,422711.000000
1484.746739,-0.081698,347943.000000,419958.000000
1487.893641,-0.081931,344781.000000,416365.000000
1491.036142,-0.081282,342531.000000,413030.000000
1494.174244,-0.081964,340170.000000,410828.000000
1497.307945,-0.083728,337701.000000,409506.000000
1500.437247,-0.083393,334446.000000,405246.000000
1503.562148,-0.085264,331876.000000,403868.000000
1507.721838,-0.086249,327918.000000,399958.000000
1510.836473,-0.085863,324967.000000,396006.000000
1513.946707,-0.087944,321718.000000,393930.000000
1517.052541,-0.088410,319073.000000,391111.000000
1520.153975,-0.088813,315575.000000,387182.000000
1523.251008,-0.090025,311252.000000,382946.000000
1527.373542,-0.090937,306492.000000,377882.000000
1530.460309,-0.092176,302471.000000,373990.000000
1533.542676,-0.092082,298873.000000,369461.000000
1536.620642,-0.094507,294593.000000,366209.000000
1539.694209,-0.094042,290524.000000,360765.000000
1542.763375,-0.094088,285805.000000,354942.000000
1545.828141,-0.095297,281854.000000,351011.000000
1549.907652,-0.097953,274841.000000,344377.000000
1552.962151,-0.097153,270515.000000,338333.000000
1556.012250,-0.100043,265203.000000,333904.000000
1559.057949,-0.101868,260042.000000,328785.000000
1562.099248,-0.102272,255973.000000,323941.000000
1565.136147,-0.103487,250523.000000,317932.000000
1568.168646,-0.104389,245616.000000,312353.000000
1572.205133,-0.105726,238774.000000,304588.000000
1575.227365,-0.106193,234179.000000,299048.000000
1578.245196,-0.106537,228934.000000,292582.000000
1581.258628,-0.108207,223478.000000,286709.000000
1584.267659,-0.108931,218239.000000,280455.000000
1587.272290,-0.109717,213357.000000,274678.000000
1591.271621,-0.110774,206678.000000,266728.000000
1594.265985,-0.114502,200655.000000,261187.000000
1597.255949,-0.114072,196105.000000,255012.000000
1600.241513,-0.115016,191413.000000,249452.000000
1603.222677,-0.118158,186271.000000,244514.000000
1606.199441,-0.116469,181567.000000,237414.000000
1609.171805,-0.119472,176656.000000,232595.000000
1613.128112,-0.120535,170106.000000,224520.000000
1616.090209,-0.123574,165195.000000,219569.000000
1619.047905,-0.122496,160661.000000,213013.000000
1622.001202,-0.130634,154762.000000,209073.000000
1624.950098,-0.129928,149284.000000,201345.000000
1627.894595,-0.135298,144304.000000,197050.000000
1630.834691,-0.138925,138573.000000,190811.000000
1634.747975,-0.141150,131373.000000,181826.000000
1637.677804,-0.146889,126061.000000,176795.000000
1640.603233,-0.150148,120043.000000,169623.000000
1643.524262,-0.157790,114222.000000,164263.000000
1646.440891,-0.156979,109595.000000,157315.000000
1649.353120,-0.165636,104146.000000,152503.000000
1653.229247,-0.147394,102337.000000,143690.000000
1656.131209,-0.140288,100118.000000,138293.000000
1659.028770,-0.141531,95076.000000,131705.000000
1661.921932,-0.124902,93881.000000,125164.000000
1664.810693,-0.118405,90392.000000,118723.000000
1667.695055,-0.115930,85969.000000,112272.000000
1670.575016,-0.101411,82225.000000,103852.000000
1674.408120,-0.073183,78925.000000,93411.000000
1677.277814,-inf,0.000000,84883.000000
1680.143108,-inf,0.000000,75080.000000
1683.004002,nan,-2147483648.000000,65054.000000
1685.860496,nan,-2147483648.000000,54526.000000
1688.712590,nan,-2147483648.000000,44674.000000
1691.560283,nan,-2147483648.000000,38784.000000
1695.350364,nan,-2147483648.000000,29763.000000
1698.187790,nan,-2147483648.000000,24559.000000
1701.020817,-inf,0.000000,20000.000000
