Method:,erol,,
Host Date-Time:,7/12/23 @ 13:47:44,,
Header Version:,1,,
System Temp (C):,38.22,,
Detector Temp (C):,22.93,,
Humidity (%):,21.03,,
Lamp PD:,3510,,
Shift Vector Coefficients:,-4.80707,0.053312,-0.000138677,,
Pixel to Wavelength Coefficients:,1763.6,-0.910608,-0.000244451,,
Serial Number:,6110061,,
Scan Config Name:,erol,,
Scan Config Type:,Slew,,
Section 1,,
Start wavelength (nm):,900,,
End wavelength (nm):,1700,,
Pattern Pixel Width (nm):,  11.71,,,,
Exposure (ms):,  0.635,,,,
Digital Resolution:,228,,
Num Repeats:,1,,
PGA Gain:,64,,
Total Measurement Time in sec:,  1.593,,
Wavelength (nm),Absorbance (AU),Reference Signal (unitless),Sample Signal (unitless)
901.370984,-0.668094,22318.000000,103932.000000
905.248306,-0.656867,26694.000000,121138.000000
909.121227,-0.651370,30240.000000,135504.000000
912.989749,-0.630058,35053.000000,149549.000000
918.140932,-0.624567,39668.000000,167112.000000
921.999187,-0.621685,44171.000000,184851.000000
925.853041,-0.617533,49463.000000,205028.000000
929.702495,-0.620693,55176.000000,230379.000000
933.547549,-0.613710,62603.000000,257220.000000
937.388203,-0.610759,70557.000000,287938.000000
941.224457,-0.604194,79215.000000,318421.000000
946.332618,-0.596463,90003.000000,355402.000000
950.158605,-0.592129,97001.000000,379232.000000
953.980191,-0.586319,104340.000000,402504.000000
957.797378,-0.583091,111157.000000,425626.000000
961.610165,-0.581807,117414.000000,448257.000000
965.418551,-0.578819,124361.000000,471523.000000
969.222537,-0.576014,131496.000000,495366.000000
974.287675,-0.574626,140925.000000,529193.000000
978.081394,-0.574298,148023.000000,555427.000000
981.870713,-0.573741,155197.000000,581600.000000
985.655632,-0.573901,162010.000000,607355.000000
989.436151,-0.570271,170019.000000,632075.000000
993.212270,-0.570953,176266.000000,656329.000000
998.240251,-0.567826,184964.000000,683775.000000
1002.006103,-0.566976,190519.000000,702933.000000
1005.767554,-0.565219,196102.000000,720612.000000
1009.524606,-0.564568,200098.000000,734194.000000
1013.277258,-0.562826,204164.000000,746114.000000
1017.025509,-0.563066,206631.000000,755547.000000
1020.769360,-0.561217,209246.000000,761858.000000
1025.754318,-0.558623,211932.000000,767043.000000
1029.487902,-0.558822,213316.000000,772406.000000
1033.217086,-0.557511,213821.000000,771900.000000
1036.941870,-0.556972,213615.000000,770200.000000
1040.662255,-0.555984,213930.000000,769583.000000
1044.378238,-0.554586,213905.000000,767021.000000
1048.089822,-0.554694,213173.000000,764586.000000
1053.031756,-0.553460,211884.000000,757807.000000
1056.733073,-0.553797,211098.000000,755581.000000
1060.429990,-0.552678,209880.000000,749288.000000
1064.122506,-0.551504,209078.000000,744411.000000
1067.810623,-0.551012,208224.000000,740530.000000
1071.494339,-0.552421,206922.000000,738292.000000
1076.399116,-0.550544,206676.000000,734233.000000
1080.072566,-0.550907,206200.000000,733155.000000
1083.741615,-0.551264,205636.000000,731751.000000
1087.406264,-0.550632,205874.000000,731532.000000
1091.066513,-0.550009,205797.000000,730211.000000
1094.722362,-0.551520,205514.000000,731747.000000
1098.373811,-0.551814,205628.000000,732649.000000
1103.235565,-0.550077,206788.000000,733841.000000
1106.876747,-0.550237,206389.000000,732696.000000
1110.513529,-0.550458,206615.000000,733871.000000
1114.145910,-0.550884,206738.000000,735028.000000
1117.773892,-0.551276,206547.000000,735013.000000
1121.397473,-0.551031,207088.000000,736523.000000
1125.016654,-0.552755,206464.000000,737224.000000
1129.835385,-0.550656,207418.000000,737059.000000
1133.444299,-0.551365,207695.000000,739250.000000
1137.048813,-0.549719,208493.000000,739282.000000
1140.648927,-0.550712,208223.000000,740015.000000
1144.244641,-0.551094,208337.000000,741072.000000
1147.835955,-0.549285,208774.000000,739540.000000
1152.617529,-0.551746,208238.000000,741832.000000
1156.198576,-0.551498,208484.000000,742285.000000
1159.775223,-0.551408,208962.000000,743832.000000
1163.347470,-0.551558,209317.000000,745353.000000
1166.915316,-0.550265,209935.000000,745332.000000
1170.478763,-0.548729,211435.000000,748007.000000
1174.037809,-0.546988,213105.000000,750899.000000
1178.776359,-0.545784,214394.000000,753349.000000
1182.325139,-0.539931,217962.000000,755634.000000
1185.869518,-0.537989,220075.000000,759555.000000
1189.409497,-0.535011,222694.000000,763342.000000
1192.945076,-0.534307,224594.000000,768609.000000
1196.476255,-0.532782,226828.000000,773532.000000
1200.003034,-0.532566,229675.000000,782853.000000
1204.698561,-0.531510,232729.000000,791336.000000
1208.215073,-0.530346,235830.000000,799733.000000
1211.727185,-0.529905,238631.000000,808411.000000
1215.234896,-0.529303,241974.000000,818599.000000
1218.738208,-0.528836,245450.000000,829466.000000
1222.237119,-0.528905,248996.000000,841584.000000
1226.895489,-0.528405,254001.000000,857513.000000
1230.384134,-0.528939,257796.000000,871396.000000
1233.868378,-0.530752,261030.000000,886018.000000
1237.348222,-0.531806,264910.000000,901372.000000
1240.823666,-0.532141,269187.000000,916633.000000
1244.294710,-0.531403,274535.000000,933255.000000
1247.761354,-0.532913,278817.000000,951113.000000
1252.376701,-0.533723,285943.000000,977242.000000
1255.833078,-0.533881,292339.000000,999465.000000
1259.285055,-0.534105,298387.000000,1020669.000000
1262.732632,-0.535065,303484.000000,1040402.000000
1266.175808,-0.535704,308643.000000,1059645.000000
1269.614584,-0.536038,313923.000000,1078602.000000
1273.048961,-0.535792,319097.000000,1095757.000000
1277.621284,-0.537658,324380.000000,1118696.000000
1281.045394,-0.537923,329793.000000,1138059.000000
1284.465103,-0.539247,333450.000000,1154192.000000
1287.880412,-0.540478,337104.000000,1170151.000000
1291.291321,-0.541576,340768.000000,1185865.000000
1294.697830,-0.542123,344605.000000,1200729.000000
1299.232997,-0.543200,349244.000000,1219912.000000
1302.629239,-0.543487,352441.000000,1231893.000000
1306.021081,-0.543839,355144.000000,1242348.000000
1309.408522,-0.544128,357732.000000,1252235.000000
1312.791564,-0.544086,360160.000000,1260611.000000
1316.170205,-0.545394,362173.000000,1271481.000000
1319.544447,-0.545394,364403.000000,1279309.000000
1324.036591,-0.546234,366317.000000,1288521.000000
1327.400565,-0.547783,366589.000000,1294084.000000
1330.760139,-0.546725,368623.000000,1298099.000000
1334.115313,-0.547935,368498.000000,1301279.000000
1337.466087,-0.547079,370046.000000,1304172.000000
1340.812461,-0.546513,370709.000000,1304808.000000
1344.154435,-0.546061,371502.000000,1306239.000000
1348.603555,-0.544706,371615.000000,1302563.000000
1351.935262,-0.543831,370997.000000,1297781.000000
1355.262569,-0.540955,371791.000000,1291974.000000
1358.585475,-0.538968,370879.000000,1282923.000000
1361.903982,-0.537426,370539.000000,1277203.000000
1365.218088,-0.533966,371657.000000,1270890.000000
1369.630052,-0.530913,372397.000000,1264500.000000
1372.933891,-0.528942,372524.000000,1259204.000000
1376.233331,-0.527803,372314.000000,1255197.000000
1379.528370,-0.526991,371243.000000,1249249.000000
1382.819009,-0.526688,369231.000000,1241613.000000
1386.105248,-0.526353,367705.000000,1235528.000000
1389.387087,-0.524565,367073.000000,1228337.000000
1393.756027,-0.522906,365715.000000,1219127.000000
1397.027599,-0.520037,365152.000000,1209235.000000
1400.294771,-0.517205,365097.000000,1201194.000000
1403.557542,-0.514486,364333.000000,1191200.000000
1406.815914,-0.508682,365413.000000,1178870.000000
1410.069885,-0.502866,365734.000000,1164211.000000
1413.319456,-0.497301,364947.000000,1146915.000000
1417.645373,-0.487858,365539.000000,1124067.000000
1420.884678,-0.481012,365230.000000,1105549.000000
1424.119582,-0.474327,365533.000000,1089566.000000
1427.350086,-0.469293,364906.000000,1075162.000000
1430.576190,-0.463553,365583.000000,1063015.000000
1433.797894,-0.459098,365648.000000,1052352.000000
1437.015198,-0.455320,365698.000000,1043381.000000
1441.298091,-0.452377,364890.000000,1034043.000000
1444.505128,-0.449618,364741.000000,1027075.000000
1447.707765,-0.446328,364393.000000,1018353.000000
1450.906001,-0.444601,363044.000000,1010556.000000
1454.099838,-0.442533,362635.000000,1004621.000000
1457.289274,-0.438874,361653.000000,993495.000000
1461.535011,-0.435683,360303.000000,982542.000000
1464.714180,-0.434174,358064.000000,973050.000000
1467.888950,-0.429728,356949.000000,960140.000000
1471.059319,-0.425827,355912.000000,948790.000000
1474.225288,-0.423240,353737.000000,937390.000000
1477.386857,-0.419738,352477.000000,926549.000000
1480.544025,-0.418708,349693.000000,917054.000000
1484.746739,-0.415302,347943.000000,905337.000000
1487.893641,-0.415803,344781.000000,898144.000000
1491.036142,-0.414902,342531.000000,890435.000000
1494.174244,-0.415230,340170.000000,884964.000000
1497.307945,-0.415943,337701.000000,879986.000000
1500.437247,-0.417535,334446.000000,874704.000000
1503.562148,-0.418630,331876.000000,870174.000000
1507.721838,-0.420044,327918.000000,862599.000000
1510.836473,-0.421528,324967.000000,857762.000000
1513.946707,-0.423009,321718.000000,852088.000000
1517.052541,-0.423093,319073.000000,845246.000000
1520.153975,-0.424113,315575.000000,837946.000000
1523.251008,-0.425464,311252.000000,829042.000000
1527.373542,-0.425742,306492.000000,816885.000000
1530.460309,-0.425999,302471.000000,806646.000000
1533.542676,-0.425699,298873.000000,796499.000000
1536.620642,-0.425662,294593.000000,785026.000000
1539.694209,-0.425211,290524.000000,773381.000000
1542.763375,-0.426188,285805.000000,762531.000000
1545.828141,-0.426110,281854.000000,751856.000000
1549.907652,-0.427828,274841.000000,736054.000000
1552.962151,-0.428354,270515.000000,725346.000000
1556.012250,-0.430706,265203.000000,714964.000000
1559.057949,-0.432485,260042.000000,703929.000000
1562.099248,-0.431908,255973.000000,691993.000000
1565.136147,-0.433470,250523.000000,679700.000000
1568.168646,-0.434771,245616.000000,668387.000000
1572.205133,-0.435922,238774.000000,651492.000000
1575.227365,-0.436121,234179.000000,639248.000000
1578.245196,-0.436968,228934.000000,626150.000000
1581.258628,-0.438830,223478.000000,613854.000000
1584.267659,-0.439275,218239.000000,600078.000000
1587.272290,-0.440758,213357.000000,588660.000000
1591.271621,-0.442666,206678.000000,572744.000000
1594.265985,-0.447299,200655.000000,562016.000000
1597.255949,-0.448928,196105.000000,551336.000000
1600.241513,-0.450125,191413.000000,539631.000000
1603.222677,-0.454895,186271.000000,530934.000000
1606.199441,-0.458037,181567.000000,521284.000000
1609.171805,-0.461803,176656.000000,511601.000000
1613.128112,-0.465846,170106.000000,497239.000000
1616.090209,-0.468630,165195.000000,485990.000000
1619.047905,-0.472673,160661.000000,477072.000000
1622.001202,-0.477465,154762.000000,464654.000000
1624.950098,-0.484317,149284.000000,455334.000000
1627.894595,-0.488428,144304.000000,444331.000000
1630.834691,-0.494234,138573.000000,432427.000000
1634.747975,-0.502605,131373.000000,417937.000000
1637.677804,-0.507664,126061.000000,405737.000000
1640.603233,-0.517079,120043.000000,394835.000000
1643.524262,-0.524433,114222.000000,382105.000000
1646.440891,-0.529641,109595.000000,371049.000000
1649.353120,-0.536994,104146.000000,358622.000000
1653.229247,-0.524647,102337.000000,342515.000000
1656.131209,-0.517080,100118.000000,329300.000000
1659.028770,-0.521367,95076.000000,315819.000000
1661.921932,-0.510734,93881.000000,304307.000000
1664.810693,-0.506271,90392.000000,290002.000000
1667.695055,-0.504842,85969.000000,274906.000000
1670.575016,-0.496744,82225.000000,258076.000000
1674.408120,-0.470374,78925.000000,233125.000000
1677.277814,-inf,0.000000,211099.000000
1680.143108,-inf,0.000000,185896.000000
1683.004002,nan,-2147483648.000000,163045.000000
1685.860496,nan,-2147483648.000000,139255.000000
1688.712590,nan,-2147483648.000000,118377.000000
1691.560283,nan,-2147483648.000000,97883.000000
1695.350364,nan,-2147483648.000000,77599.000000
1698.187790,nan,-2147483648.000000,65020.000000
1701.020817,-inf,0.000000,53738.000000
