Method:,erol,,
Host Date-Time:,7/12/23 @ 13:44:15,,
Header Version:,1,,
System Temp (C):,37.54,,
Detector Temp (C):,22.53,,
Humidity (%):,22.19,,
Lamp PD:,3574,,
Shift Vector Coefficients:,-4.80707,0.053312,-0.000138677,,
Pixel to Wavelength Coefficients:,1763.6,-0.910608,-0.000244451,,
Serial Number:,6110061,,
Scan Config Name:,erol,,
Scan Config Type:,Slew,,
Section 1,,
Start wavelength (nm):,900,,
End wavelength (nm):,1700,,
Pattern Pixel Width (nm):,  11.71,,,,
Exposure (ms):,  0.635,,,,
Digital Resolution:,228,,
Num Repeats:,1,,
PGA Gain:,64,,
Total Measurement Time in sec:,  1.594,,
Wavelength (nm),Absorbance (AU),Reference Signal (unitless),Sample Signal (unitless)
901.370984,-0.457049,22318.000000,63930.000000
905.248306,-0.448665,26694.000000,75003.000000
909.121227,-0.443082,30240.000000,83881.000000
912.989749,-0.421233,35053.000000,92461.000000
918.140932,-0.421021,39668.000000,104583.000000
921.999187,-0.414180,44171.000000,114635.000000
925.853041,-0.417979,49463.000000,129497.000000
929.702495,-0.417781,55176.000000,144388.000000
933.547549,-0.417804,62603.000000,163832.000000
937.388203,-0.414279,70557.000000,183155.000000
941.224457,-0.409911,79215.000000,203572.000000
946.332618,-0.408595,90003.000000,230596.000000
950.158605,-0.409969,97001.000000,249313.000000
953.980191,-0.404543,104340.000000,264846.000000
957.797378,-0.402528,111157.000000,280844.000000
961.610165,-0.405932,117414.000000,298987.000000
965.418551,-0.407237,124361.000000,317630.000000
969.222537,-0.407312,131496.000000,335911.000000
974.287675,-0.409096,140925.000000,361480.000000
978.081394,-0.411275,148023.000000,381596.000000
981.870713,-0.412070,155197.000000,400824.000000
985.655632,-0.413842,162010.000000,420130.000000
989.436151,-0.412981,170019.000000,440026.000000
993.212270,-0.414342,176266.000000,457626.000000
998.240251,-0.414187,184964.000000,480036.000000
1002.006103,-0.414230,190519.000000,494502.000000
1005.767554,-0.413653,196102.000000,508318.000000
1009.524606,-0.413406,200098.000000,518381.000000
1013.277258,-0.411406,204164.000000,526484.000000
1017.025509,-0.411458,206631.000000,532910.000000
1020.769360,-0.410425,209246.000000,538372.000000
1025.754318,-0.409223,211932.000000,543775.000000
1029.487902,-0.408485,213316.000000,546397.000000
1033.217086,-0.408306,213821.000000,547465.000000
1036.941870,-0.408144,213615.000000,546734.000000
1040.662255,-0.408183,213930.000000,547589.000000
1044.378238,-0.406755,213905.000000,545727.000000
1048.089822,-0.404746,213173.000000,541350.000000
1053.031756,-0.404625,211884.000000,537927.000000
1056.733073,-0.403270,211098.000000,534262.000000
1060.429990,-0.402784,209880.000000,530585.000000
1064.122506,-0.402562,209078.000000,528288.000000
1067.810623,-0.402069,208224.000000,525533.000000
1071.494339,-0.402225,206922.000000,522434.000000
1076.399116,-0.400345,206676.000000,519559.000000
1080.072566,-0.401173,206200.000000,519352.000000
1083.741615,-0.401158,205636.000000,517913.000000
1087.406264,-0.398759,205874.000000,515657.000000
1091.066513,-0.398117,205797.000000,514702.000000
1094.722362,-0.398121,205514.000000,513999.000000
1098.373811,-0.399588,205628.000000,516024.000000
1103.235565,-0.396665,206788.000000,515455.000000
1106.876747,-0.397686,206389.000000,515671.000000
1110.513529,-0.396963,206615.000000,515377.000000
1114.145910,-0.395642,206738.000000,514118.000000
1117.773892,-0.396599,206547.000000,514775.000000
1121.397473,-0.395344,207088.000000,514634.000000
1125.016654,-0.395556,206464.000000,513334.000000
1129.835385,-0.393792,207418.000000,513616.000000
1133.444299,-0.393158,207695.000000,513552.000000
1137.048813,-0.391632,208493.000000,513717.000000
1140.648927,-0.390779,208223.000000,512045.000000
1144.244641,-0.389765,208337.000000,511130.000000
1147.835955,-0.390104,208774.000000,512602.000000
1152.617529,-0.389765,208238.000000,510887.000000
1156.198576,-0.389732,208484.000000,511452.000000
1159.775223,-0.388575,208962.000000,511261.000000
1163.347470,-0.386849,209317.000000,510098.000000
1166.915316,-0.386981,209935.000000,511759.000000
1170.478763,-0.382815,211435.000000,510495.000000
1174.037809,-0.381562,213105.000000,513045.000000
1178.776359,-0.381179,214394.000000,515693.000000
1182.325139,-0.374357,217962.000000,516105.000000
1185.869518,-0.373331,220075.000000,519878.000000
1189.409497,-0.369910,222694.000000,521937.000000
1192.945076,-0.370387,224594.000000,526969.000000
1196.476255,-0.368139,226828.000000,529463.000000
1200.003034,-0.367715,229675.000000,535586.000000
1204.698561,-0.368247,232729.000000,543372.000000
1208.215073,-0.367908,235830.000000,550183.000000
1211.727185,-0.367962,238631.000000,556787.000000
1215.234896,-0.367065,241974.000000,563422.000000
1218.738208,-0.367360,245450.000000,571904.000000
1222.237119,-0.367078,248996.000000,579790.000000
1226.895489,-0.368926,254001.000000,593966.000000
1230.384134,-0.368160,257796.000000,601778.000000
1233.868378,-0.369984,261030.000000,611891.000000
1237.348222,-0.371402,264910.000000,623018.000000
1240.823666,-0.372157,269187.000000,634178.000000
1244.294710,-0.372245,274535.000000,646909.000000
1247.761354,-0.373801,278817.000000,659357.000000
1252.376701,-0.375211,285943.000000,678408.000000
1255.833078,-0.374610,292339.000000,692623.000000
1259.285055,-0.374993,298387.000000,707576.000000
1262.732632,-0.376005,303484.000000,721342.000000
1266.175808,-0.377335,308643.000000,735853.000000
1269.614584,-0.377570,313923.000000,748847.000000
1273.048961,-0.378076,319097.000000,762076.000000
1277.621284,-0.379930,324380.000000,778008.000000
1281.045394,-0.379289,329793.000000,789824.000000
1284.465103,-0.380223,333450.000000,800302.000000
1287.880412,-0.380649,337104.000000,809866.000000
1291.291321,-0.381754,340768.000000,820754.000000
1294.697830,-0.381755,344605.000000,829998.000000
1299.232997,-0.382100,349244.000000,841838.000000
1302.629239,-0.382721,352441.000000,850760.000000
1306.021081,-0.383113,355144.000000,858059.000000
1309.408522,-0.382134,357732.000000,862367.000000
1312.791564,-0.382406,360160.000000,868764.000000
1316.170205,-0.382308,362173.000000,873422.000000
1319.544447,-0.383405,364403.000000,881023.000000
1324.036591,-0.383813,366317.000000,886483.000000
1327.400565,-0.385450,366589.000000,890490.000000
1330.760139,-0.384093,368623.000000,892638.000000
1334.115313,-0.385693,368498.000000,895628.000000
1337.466087,-0.384358,370046.000000,896631.000000
1340.812461,-0.384190,370709.000000,897890.000000
1344.154435,-0.383211,371502.000000,897784.000000
1348.603555,-0.382954,371615.000000,897526.000000
1351.935262,-0.382814,370997.000000,895746.000000
1355.262569,-0.379898,371791.000000,891655.000000
1358.585475,-0.379373,370879.000000,888394.000000
1361.903982,-0.377706,370539.000000,884179.000000
1365.218088,-0.375297,371657.000000,881940.000000
1369.630052,-0.372563,372397.000000,878150.000000
1372.933891,-0.371631,372524.000000,876567.000000
1376.233331,-0.370335,372314.000000,873462.000000
1379.528370,-0.369539,371243.000000,869355.000000
1382.819009,-0.369676,369231.000000,864917.000000
1386.105248,-0.370319,367705.000000,862618.000000
1389.387087,-0.368444,367073.000000,857426.000000
1393.756027,-0.367765,365715.000000,852919.000000
1397.027599,-0.365830,365152.000000,847821.000000
1400.294771,-0.363986,365097.000000,844101.000000
1403.557542,-0.362033,364333.000000,838555.000000
1406.815914,-0.357619,365413.000000,832535.000000
1410.069885,-0.353993,365734.000000,826340.000000
1413.319456,-0.350015,364947.000000,817043.000000
1417.645373,-0.342525,365539.000000,804376.000000
1420.884678,-0.339074,365230.000000,797334.000000
1424.119582,-0.334364,365533.000000,789388.000000
1427.350086,-0.331420,364906.000000,782710.000000
1430.576190,-0.326743,365583.000000,775762.000000
1433.797894,-0.323853,365648.000000,770755.000000
1437.015198,-0.320563,365698.000000,765042.000000
1441.298091,-0.318217,364890.000000,759240.000000
1444.505128,-0.316153,364741.000000,755332.000000
1447.707765,-0.314109,364393.000000,751068.000000
1450.906001,-0.313287,363044.000000,746872.000000
1454.099838,-0.310274,362635.000000,740873.000000
1457.289274,-0.309439,361653.000000,737447.000000
1461.535011,-0.305858,360303.000000,728661.000000
1464.714180,-0.305505,358064.000000,723546.000000
1467.888950,-0.302403,356949.000000,716159.000000
1471.059319,-0.299584,355912.000000,709458.000000
1474.225288,-0.297213,353737.000000,701283.000000
1477.386857,-0.295249,352477.000000,695632.000000
1480.544025,-0.294563,349693.000000,689049.000000
1484.746739,-0.291733,347943.000000,681147.000000
1487.893641,-0.292818,344781.000000,676646.000000
1491.036142,-0.292271,342531.000000,671384.000000
1494.174244,-0.292781,340170.000000,667540.000000
1497.307945,-0.293182,337701.000000,663307.000000
1500.437247,-0.294857,334446.000000,659451.000000
1503.562148,-0.295303,331876.000000,655057.000000
1507.721838,-0.298112,327918.000000,651444.000000
1510.836473,-0.298972,324967.000000,646861.000000
1513.946707,-0.300561,321718.000000,642741.000000
1517.052541,-0.300153,319073.000000,636859.000000
1520.153975,-0.301900,315575.000000,632415.000000
1523.251008,-0.304448,311252.000000,627422.000000
1527.373542,-0.305223,306492.000000,618931.000000
1530.460309,-0.305473,302471.000000,611162.000000
1533.542676,-0.306105,298873.000000,604772.000000
1536.620642,-0.305925,294593.000000,595865.000000
1539.694209,-0.308110,290524.000000,590598.000000
1542.763375,-0.308779,285805.000000,581900.000000
1545.828141,-0.310444,281854.000000,576060.000000
1549.907652,-0.312482,274841.000000,564370.000000
1552.962151,-0.313545,270515.000000,556847.000000
1556.012250,-0.316301,265203.000000,549388.000000
1559.057949,-0.318703,260042.000000,541685.000000
1562.099248,-0.320102,255973.000000,534929.000000
1565.136147,-0.321961,250523.000000,525786.000000
1568.168646,-0.323121,245616.000000,516866.000000
1572.205133,-0.326471,238774.000000,506358.000000
1575.227365,-0.327316,234179.000000,497581.000000
1578.245196,-0.329030,228934.000000,488360.000000
1581.258628,-0.330043,223478.000000,477835.000000
1584.267659,-0.333372,218239.000000,470223.000000
1587.272290,-0.335025,213357.000000,461458.000000
1591.271621,-0.338466,206678.000000,450568.000000
1594.265985,-0.342753,200655.000000,441777.000000
1597.255949,-0.345388,196105.000000,434387.000000
1600.241513,-0.347631,191413.000000,426189.000000
1603.222677,-0.352537,186271.000000,419452.000000
1606.199441,-0.355766,181567.000000,411911.000000
1609.171805,-0.360489,176656.000000,405151.000000
1613.128112,-0.364620,170106.000000,393858.000000
1616.090209,-0.367599,165195.000000,385120.000000
1619.047905,-0.372642,160661.000000,378924.000000
1622.001202,-0.378831,154762.000000,370250.000000
1624.950098,-0.383523,149284.000000,361024.000000
1627.894595,-0.389816,144304.000000,354074.000000
1630.834691,-0.396397,138573.000000,345204.000000
1634.747975,-0.404680,131373.000000,333569.000000
1637.677804,-0.411949,126061.000000,325484.000000
1640.603233,-0.421103,120043.000000,316548.000000
1643.524262,-0.430544,114222.000000,307818.000000
1646.440891,-0.436056,109595.000000,299121.000000
1649.353120,-0.446371,104146.000000,291081.000000
1653.229247,-0.434897,102337.000000,278567.000000
1656.131209,-0.427232,100118.000000,267759.000000
1659.028770,-0.435375,95076.000000,259087.000000
1661.921932,-0.423461,93881.000000,248908.000000
1664.810693,-0.420985,90392.000000,238295.000000
1667.695055,-0.417858,85969.000000,225009.000000
1670.575016,-0.412929,82225.000000,212781.000000
1674.408120,-0.381002,78925.000000,189765.000000
1677.277814,-inf,0.000000,171773.000000
1680.143108,-inf,0.000000,151287.000000
1683.004002,nan,-2147483648.000000,131996.000000
1685.860496,nan,-2147483648.000000,112613.000000
1688.712590,nan,-2147483648.000000,95403.000000
1691.560283,nan,-2147483648.000000,78840.000000
1695.350364,nan,-2147483648.000000,63367.000000
1698.187790,nan,-2147483648.000000,53633.000000
1701.020817,-inf,0.000000,44255.000000
