Method:,erol,,
Host Date-Time:,7/12/23 @ 13:46:53,,
Header Version:,1,,
System Temp (C):,37.95,,
Detector Temp (C):,23.99,,
Humidity (%):,21.62,,
Lamp PD:,3575,,
Shift Vector Coefficients:,-4.80707,0.053312,-0.000138677,,
Pixel to Wavelength Coefficients:,1763.6,-0.910608,-0.000244451,,
Serial Number:,6110061,,
Scan Config Name:,erol,,
Scan Config Type:,Slew,,
Section 1,,
Start wavelength (nm):,900,,
End wavelength (nm):,1700,,
Pattern Pixel Width (nm):,  11.71,,,,
Exposure (ms):,  0.635,,,,
Digital Resolution:,228,,
Num Repeats:,1,,
PGA Gain:,64,,
Total Measurement Time in sec:,  1.592,,
Wavelength (nm),Absorbance (AU),Reference Signal (unitless),Sample Signal (unitless)
901.370984,-0.319068,22318.000000,46529.000000
905.248306,-0.307610,26694.000000,54203.000000
909.121227,-0.302829,30240.000000,60731.000000
912.989749,-0.293166,35053.000000,68848.000000
918.140932,-0.290475,39668.000000,77431.000000
921.999187,-0.285521,44171.000000,85243.000000
925.853041,-0.289756,49463.000000,96391.000000
929.702495,-0.290465,55176.000000,107700.000000
933.547549,-0.284907,62603.000000,120643.000000
937.388203,-0.291289,70557.000000,137984.000000
941.224457,-0.283590,79215.000000,152194.000000
946.332618,-0.278777,90003.000000,171015.000000
950.158605,-0.280234,97001.000000,184931.000000
953.980191,-0.273326,104340.000000,195784.000000
957.797378,-0.272938,111157.000000,208389.000000
961.610165,-0.277838,117414.000000,222617.000000
965.418551,-0.276140,124361.000000,234868.000000
969.222537,-0.276211,131496.000000,248384.000000
974.287675,-0.277751,140925.000000,267140.000000
978.081394,-0.278887,148023.000000,281330.000000
981.870713,-0.279956,155197.000000,295692.000000
985.655632,-0.283767,162010.000000,311393.000000
989.436151,-0.279437,170019.000000,323545.000000
993.212270,-0.283278,176266.000000,338413.000000
998.240251,-0.282208,184964.000000,354238.000000
1002.006103,-0.282814,190519.000000,365386.000000
1005.767554,-0.281330,196102.000000,374811.000000
1009.524606,-0.280933,200098.000000,382099.000000
1013.277258,-0.281689,204164.000000,390542.000000
1017.025509,-0.280999,206631.000000,394634.000000
1020.769360,-0.280126,209246.000000,398826.000000
1025.754318,-0.279433,211932.000000,403301.000000
1029.487902,-0.278514,213316.000000,405077.000000
1033.217086,-0.277518,213821.000000,405106.000000
1036.941870,-0.278276,213615.000000,405422.000000
1040.662255,-0.275823,213930.000000,403733.000000
1044.378238,-0.274605,213905.000000,402556.000000
1048.089822,-0.273820,213173.000000,400454.000000
1053.031756,-0.271737,211884.000000,396128.000000
1056.733073,-0.271982,211098.000000,394881.000000
1060.429990,-0.270689,209880.000000,391435.000000
1064.122506,-0.269502,209078.000000,388875.000000
1067.810623,-0.268091,208224.000000,386031.000000
1071.494339,-0.268320,206922.000000,383819.000000
1076.399116,-0.265614,206676.000000,380982.000000
1080.072566,-0.265293,206200.000000,379823.000000
1083.741615,-0.265000,205636.000000,378529.000000
1087.406264,-0.262232,205874.000000,376559.000000
1091.066513,-0.260237,205797.000000,374693.000000
1094.722362,-0.261256,205514.000000,375057.000000
1098.373811,-0.261612,205628.000000,375573.000000
1103.235565,-0.258287,206788.000000,374811.000000
1106.876747,-0.257821,206389.000000,373687.000000
1110.513529,-0.257801,206615.000000,374079.000000
1114.145910,-0.257485,206738.000000,374029.000000
1117.773892,-0.256778,206547.000000,373076.000000
1121.397473,-0.256595,207088.000000,373895.000000
1125.016654,-0.257027,206464.000000,373140.000000
1129.835385,-0.255986,207418.000000,373966.000000
1133.444299,-0.257364,207695.000000,375656.000000
1137.048813,-0.255276,208493.000000,375290.000000
1140.648927,-0.254787,208223.000000,374383.000000
1144.244641,-0.254500,208337.000000,374340.000000
1147.835955,-0.254632,208774.000000,375239.000000
1152.617529,-0.256377,208238.000000,375783.000000
1156.198576,-0.255196,208484.000000,375205.000000
1159.775223,-0.254959,208962.000000,375860.000000
1163.347470,-0.254547,209317.000000,376142.000000
1166.915316,-0.254715,209935.000000,377398.000000
1170.478763,-0.252851,211435.000000,378467.000000
1174.037809,-0.251488,213105.000000,380261.000000
1178.776359,-0.250548,214394.000000,381734.000000
1182.325139,-0.244993,217962.000000,383154.000000
1185.869518,-0.242742,220075.000000,384869.000000
1189.409497,-0.240045,222694.000000,387038.000000
1192.945076,-0.239578,224594.000000,389921.000000
1196.476255,-0.238523,226828.000000,392844.000000
1200.003034,-0.235486,229675.000000,395002.000000
1204.698561,-0.236164,232729.000000,400880.000000
1208.215073,-0.235890,235830.000000,405965.000000
1211.727185,-0.233485,238631.000000,408519.000000
1215.234896,-0.234954,241974.000000,415645.000000
1218.738208,-0.233814,245450.000000,420511.000000
1222.237119,-0.233581,248996.000000,426357.000000
1226.895489,-0.234340,254001.000000,435688.000000
1230.384134,-0.232941,257796.000000,440775.000000
1233.868378,-0.233230,261030.000000,446602.000000
1237.348222,-0.233721,264910.000000,453753.000000
1240.823666,-0.234515,269187.000000,461922.000000
1244.294710,-0.233201,274535.000000,469676.000000
1247.761354,-0.234730,278817.000000,478684.000000
1252.376701,-0.235438,285943.000000,491720.000000
1255.833078,-0.235137,292339.000000,502370.000000
1259.285055,-0.235351,298387.000000,513016.000000
1262.732632,-0.235897,303484.000000,522436.000000
1266.175808,-0.236360,308643.000000,531883.000000
1269.614584,-0.237541,313923.000000,542456.000000
1273.048961,-0.237043,319097.000000,550764.000000
1277.621284,-0.240422,324380.000000,564256.000000
1281.045394,-0.239520,329793.000000,572481.000000
1284.465103,-0.241435,333450.000000,581387.000000
1287.880412,-0.240966,337104.000000,587124.000000
1291.291321,-0.242992,340768.000000,596281.000000
1294.697830,-0.243600,344605.000000,603840.000000
1299.232997,-0.243541,349244.000000,611885.000000
1302.629239,-0.244290,352441.000000,618552.000000
1306.021081,-0.244557,355144.000000,623679.000000
1309.408522,-0.245334,357732.000000,629350.000000
1312.791564,-0.245181,360160.000000,633398.000000
1316.170205,-0.246745,362173.000000,639236.000000
1319.544447,-0.246879,364403.000000,643370.000000
1324.036591,-0.248072,366317.000000,648529.000000
1327.400565,-0.250847,366589.000000,653170.000000
1330.760139,-0.250087,368623.000000,655646.000000
1334.115313,-0.251465,368498.000000,657507.000000
1337.466087,-0.251114,370046.000000,659735.000000
1340.812461,-0.251409,370709.000000,661367.000000
1344.154435,-0.251880,371502.000000,663500.000000
1348.603555,-0.252647,371615.000000,664875.000000
1351.935262,-0.252241,370997.000000,663149.000000
1355.262569,-0.250484,371791.000000,661885.000000
1358.585475,-0.250321,370879.000000,660014.000000
1361.903982,-0.250042,370539.000000,658985.000000
1365.218088,-0.247868,371657.000000,657673.000000
1369.630052,-0.245969,372397.000000,656108.000000
1372.933891,-0.244357,372524.000000,653900.000000
1376.233331,-0.244304,372314.000000,653451.000000
1379.528370,-0.244013,371243.000000,651135.000000
1382.819009,-0.244300,369231.000000,648035.000000
1386.105248,-0.244983,367705.000000,646372.000000
1389.387087,-0.243851,367073.000000,643581.000000
1393.756027,-0.243797,365715.000000,641121.000000
1397.027599,-0.242218,365152.000000,637811.000000
1400.294771,-0.240071,365097.000000,634569.000000
1403.557542,-0.239988,364333.000000,633121.000000
1406.815914,-0.236417,365413.000000,629798.000000
1410.069885,-0.233149,365734.000000,625626.000000
1413.319456,-0.231225,364947.000000,621519.000000
1417.645373,-0.225262,365539.000000,614038.000000
1420.884678,-0.222498,365230.000000,609627.000000
1424.119582,-0.217545,365533.000000,603214.000000
1427.350086,-0.215326,364906.000000,599111.000000
1430.576190,-0.211139,365583.000000,594463.000000
1433.797894,-0.208360,365648.000000,590777.000000
1437.015198,-0.206220,365698.000000,587953.000000
1441.298091,-0.204133,364890.000000,583842.000000
1444.505128,-0.202706,364741.000000,581689.000000
1447.707765,-0.201631,364393.000000,579697.000000
1450.906001,-0.200179,363044.000000,575623.000000
1454.099838,-0.198741,362635.000000,573074.000000
1457.289274,-0.196967,361653.000000,569193.000000
1461.535011,-0.194814,360303.000000,564263.000000
1464.714180,-0.193662,358064.000000,559271.000000
1467.888950,-0.191428,356949.000000,554669.000000
1471.059319,-0.189127,355912.000000,550136.000000
1474.225288,-0.187873,353737.000000,545197.000000
1477.386857,-0.185244,352477.000000,539977.000000
1480.544025,-0.185795,349693.000000,536391.000000
1484.746739,-0.183233,347943.000000,530568.000000
1487.893641,-0.183680,344781.000000,526288.000000
1491.036142,-0.183286,342531.000000,522379.000000
1494.174244,-0.183673,340170.000000,519241.000000
1497.307945,-0.184271,337701.000000,516183.000000
1500.437247,-0.186134,334446.000000,513405.000000
1503.562148,-0.186718,331876.000000,510145.000000
1507.721838,-0.188523,327918.000000,506161.000000
1510.836473,-0.188665,324967.000000,501769.000000
1513.946707,-0.191146,321718.000000,499599.000000
1517.052541,-0.189987,319073.000000,494171.000000
1520.153975,-0.193223,315575.000000,492408.000000
1523.251008,-0.194089,311252.000000,486632.000000
1527.373542,-0.195362,306492.000000,480597.000000
1530.460309,-0.195801,302471.000000,474772.000000
1533.542676,-0.195761,298873.000000,469081.000000
1536.620642,-0.196583,294593.000000,463239.000000
1539.694209,-0.198214,290524.000000,458560.000000
1542.763375,-0.199940,285805.000000,452908.000000
1545.828141,-0.200338,281854.000000,447056.000000
1549.907652,-0.203152,274841.000000,438767.000000
1552.962151,-0.205309,270515.000000,434011.000000
1556.012250,-0.207092,265203.000000,427239.000000
1559.057949,-0.210349,260042.000000,422078.000000
1562.099248,-0.210797,255973.000000,415902.000000
1565.136147,-0.213233,250523.000000,409337.000000
1568.168646,-0.215598,245616.000000,403510.000000
1572.205133,-0.218576,238774.000000,394969.000000
1575.227365,-0.220828,234179.000000,389382.000000
1578.245196,-0.222469,228934.000000,382102.000000
1581.258628,-0.226394,223478.000000,376382.000000
1584.267659,-0.227339,218239.000000,368359.000000
1587.272290,-0.229646,213357.000000,362037.000000
1591.271621,-0.233584,206678.000000,353898.000000
1594.265985,-0.239699,200655.000000,348457.000000
1597.255949,-0.243802,196105.000000,343788.000000
1600.241513,-0.246785,191413.000000,337875.000000
1603.222677,-0.251283,186271.000000,332222.000000
1606.199441,-0.254739,181567.000000,326419.000000
1609.171805,-0.258544,176656.000000,320385.000000
1613.128112,-0.266460,170106.000000,314181.000000
1616.090209,-0.269837,165195.000000,307492.000000
1619.047905,-0.273905,160661.000000,301867.000000
1622.001202,-0.279462,154762.000000,294528.000000
1624.950098,-0.286015,149284.000000,288422.000000
1627.894595,-0.291029,144304.000000,282038.000000
1630.834691,-0.298898,138573.000000,275789.000000
1634.747975,-0.306798,131373.000000,266259.000000
1637.677804,-0.314748,126061.000000,260213.000000
1640.603233,-0.321376,120043.000000,251601.000000
1643.524262,-0.331987,114222.000000,245322.000000
1646.440891,-0.337417,109595.000000,238346.000000
1649.353120,-0.342593,104146.000000,229211.000000
1653.229247,-0.332944,102337.000000,220281.000000
1656.131209,-0.325957,100118.000000,212065.000000
1659.028770,-0.332051,95076.000000,204231.000000
1661.921932,-0.317029,93881.000000,194808.000000
1664.810693,-0.317341,90392.000000,187703.000000
1667.695055,-0.314859,85969.000000,177501.000000
1670.575016,-0.309262,82225.000000,167597.000000
1674.408120,-0.282076,78925.000000,151109.000000
1677.277814,-inf,0.000000,137091.000000
1680.143108,-inf,0.000000,122545.000000
1683.004002,nan,-2147483648.000000,107300.000000
1685.860496,nan,-2147483648.000000,90557.000000
1688.712590,nan,-2147483648.000000,77467.000000
1691.560283,nan,-2147483648.000000,65064.000000
1695.350364,nan,-2147483648.000000,50377.000000
1698.187790,nan,-2147483648.000000,43420.000000
1701.020817,-inf,0.000000,36131.000000
