Method:,erol,,
Host Date-Time:,7/12/23 @ 13:57:22,,
Header Version:,1,,
System Temp (C):,39.66,,
Detector Temp (C):,25.34,,
Humidity (%):,19.01,,
Lamp PD:,3408,,
Shift Vector Coefficients:,-4.80707,0.053312,-0.000138677,,
Pixel to Wavelength Coefficients:,1763.6,-0.910608,-0.000244451,,
Serial Number:,6110061,,
Scan Config Name:,erol,,
Scan Config Type:,Slew,,
Section 1,,
Start wavelength (nm):,900,,
End wavelength (nm):,1700,,
Pattern Pixel Width (nm):,  11.71,,,,
Exposure (ms):,  0.635,,,,
Digital Resolution:,228,,
Num Repeats:,1,,
PGA Gain:,64,,
Total Measurement Time in sec:,  1.593,,
Wavelength (nm),Absorbance (AU),Reference Signal (unitless),Sample Signal (unitless)
901.370984,-0.759781,22318.000000,128362.000000
905.248306,-0.744288,26694.000000,148150.000000
909.121227,-0.736275,30240.000000,164762.000000
912.989749,-0.708729,35053.000000,179248.000000
918.140932,-0.705157,39668.000000,201186.000000
921.999187,-0.696649,44171.000000,219678.000000
925.853041,-0.691083,49463.000000,242864.000000
929.702495,-0.692927,55176.000000,272068.000000
933.547549,-0.686170,62603.000000,303924.000000
937.388203,-0.683321,70557.000000,340299.000000
941.224457,-0.677816,79215.000000,377245.000000
946.332618,-0.668243,90003.000000,419276.000000
950.158605,-0.666685,97001.000000,450258.000000
953.980191,-0.659382,104340.000000,476248.000000
957.797378,-0.656131,111157.000000,503579.000000
961.610165,-0.653980,117414.000000,529298.000000
965.418551,-0.650858,124361.000000,556599.000000
969.222537,-0.648933,131496.000000,585930.000000
974.287675,-0.646702,140925.000000,624726.000000
978.081394,-0.644449,148023.000000,652797.000000
981.870713,-0.643351,155197.000000,682707.000000
985.655632,-0.642740,162010.000000,711675.000000
989.436151,-0.638736,170019.000000,740003.000000
993.212270,-0.638569,176266.000000,766898.000000
998.240251,-0.635573,184964.000000,799208.000000
1002.006103,-0.634848,190519.000000,821838.000000
1005.767554,-0.631157,196102.000000,838763.000000
1009.524606,-0.630692,200098.000000,854938.000000
1013.277258,-0.628033,204164.000000,866986.000000
1017.025509,-0.627597,206631.000000,876581.000000
1020.769360,-0.625326,209246.000000,883045.000000
1025.754318,-0.622641,211932.000000,888868.000000
1029.487902,-0.621227,213316.000000,891764.000000
1033.217086,-0.620682,213821.000000,892756.000000
1036.941870,-0.620372,213615.000000,891259.000000
1040.662255,-0.619017,213930.000000,889793.000000
1044.378238,-0.617710,213905.000000,887015.000000
1048.089822,-0.616240,213173.000000,880992.000000
1053.031756,-0.615603,211884.000000,874382.000000
1056.733073,-0.614753,211098.000000,869435.000000
1060.429990,-0.614728,209880.000000,864368.000000
1064.122506,-0.613390,209078.000000,858418.000000
1067.810623,-0.613690,208224.000000,855502.000000
1071.494339,-0.614337,206922.000000,851420.000000
1076.399116,-0.613334,206676.000000,848445.000000
1080.072566,-0.613197,206200.000000,846225.000000
1083.741615,-0.613818,205636.000000,845118.000000
1087.406264,-0.612271,205874.000000,843088.000000
1091.066513,-0.612210,205797.000000,842653.000000
1094.722362,-0.613940,205514.000000,844854.000000
1098.373811,-0.613914,205628.000000,845272.000000
1103.235565,-0.611646,206788.000000,845612.000000
1106.876747,-0.612918,206389.000000,846456.000000
1110.513529,-0.612222,206615.000000,846027.000000
1114.145910,-0.612548,206738.000000,847165.000000
1117.773892,-0.612982,206547.000000,847229.000000
1121.397473,-0.612492,207088.000000,848491.000000
1125.016654,-0.613775,206464.000000,848437.000000
1129.835385,-0.611450,207418.000000,847805.000000
1133.444299,-0.611516,207695.000000,849067.000000
1137.048813,-0.610035,208493.000000,849428.000000
1140.648927,-0.609660,208223.000000,847595.000000
1144.244641,-0.607886,208337.000000,844603.000000
1147.835955,-0.605979,208774.000000,842665.000000
1152.617529,-0.605063,208238.000000,838732.000000
1156.198576,-0.603924,208484.000000,837523.000000
1159.775223,-0.602379,208962.000000,836462.000000
1163.347470,-0.600607,209317.000000,834471.000000
1166.915316,-0.598404,209935.000000,832700.000000
1170.478763,-0.595067,211435.000000,832231.000000
1174.037809,-0.590851,213105.000000,830700.000000
1178.776359,-0.586977,214394.000000,828304.000000
1182.325139,-0.578163,217962.000000,825170.000000
1185.869518,-0.572897,220075.000000,823128.000000
1189.409497,-0.567662,222694.000000,822944.000000
1192.945076,-0.565705,224594.000000,826234.000000
1196.476255,-0.561568,226828.000000,826542.000000
1200.003034,-0.558566,229675.000000,831151.000000
1204.698561,-0.557877,232729.000000,840868.000000
1208.215073,-0.556165,235830.000000,848719.000000
1211.727185,-0.557052,238631.000000,860555.000000
1215.234896,-0.557653,241974.000000,873820.000000
1218.738208,-0.558281,245450.000000,887655.000000
1222.237119,-0.559300,248996.000000,902593.000000
1226.895489,-0.561204,254001.000000,924782.000000
1230.384134,-0.562416,257796.000000,941223.000000
1233.868378,-0.565220,261030.000000,959203.000000
1237.348222,-0.566887,264910.000000,977204.000000
1240.823666,-0.567886,269187.000000,995267.000000
1244.294710,-0.567936,274535.000000,1015159.000000
1247.761354,-0.569652,278817.000000,1035074.000000
1252.376701,-0.570906,285943.000000,1064597.000000
1255.833078,-0.570673,292339.000000,1087826.000000
1259.285055,-0.569758,298387.000000,1107994.000000
1262.732632,-0.570514,303484.000000,1128885.000000
1266.175808,-0.570740,308643.000000,1148673.000000
1269.614584,-0.570288,313923.000000,1167107.000000
1273.048961,-0.569815,319097.000000,1185053.000000
1277.621284,-0.572102,324380.000000,1211032.000000
1281.045394,-0.570418,329793.000000,1226478.000000
1284.465103,-0.572254,333450.000000,1245331.000000
1287.880412,-0.573297,337104.000000,1262005.000000
1291.291321,-0.573796,340768.000000,1277188.000000
1294.697830,-0.574409,344605.000000,1293392.000000
1299.232997,-0.575139,349244.000000,1313009.000000
1302.629239,-0.574978,352441.000000,1324539.000000
1306.021081,-0.574751,355144.000000,1333999.000000
1309.408522,-0.574706,357732.000000,1343582.000000
1312.791564,-0.573967,360160.000000,1350399.000000
1316.170205,-0.574482,362173.000000,1359558.000000
1319.544447,-0.574220,364403.000000,1367105.000000
1324.036591,-0.574097,366317.000000,1373897.000000
1327.400565,-0.575206,366589.000000,1378431.000000
1330.760139,-0.573023,368623.000000,1379132.000000
1334.115313,-0.573633,368498.000000,1380601.000000
1337.466087,-0.571762,370046.000000,1380439.000000
1340.812461,-0.570783,370709.000000,1379801.000000
1344.154435,-0.568446,371502.000000,1375330.000000
1348.603555,-0.565885,371615.000000,1367661.000000
1351.935262,-0.564233,370997.000000,1360203.000000
1355.262569,-0.559439,371791.000000,1348149.000000
1358.585475,-0.556975,370879.000000,1337233.000000
1361.903982,-0.552752,370539.000000,1323079.000000
1365.218088,-0.547684,371657.000000,1311675.000000
1369.630052,-0.542119,372397.000000,1297554.000000
1372.933891,-0.538740,372524.000000,1287935.000000
1376.233331,-0.534966,372314.000000,1276072.000000
1379.528370,-0.532445,371243.000000,1265038.000000
1382.819009,-0.531093,369231.000000,1254270.000000
1386.105248,-0.528870,367705.000000,1242710.000000
1389.387087,-0.526828,367073.000000,1234753.000000
1393.756027,-0.524256,365715.000000,1222922.000000
1397.027599,-0.521354,365152.000000,1212908.000000
1400.294771,-0.517925,365097.000000,1203186.000000
1403.557542,-0.513717,364333.000000,1189091.000000
1406.815914,-0.507526,365413.000000,1175737.000000
1410.069885,-0.501271,365734.000000,1159943.000000
1413.319456,-0.495484,364947.000000,1142126.000000
1417.645373,-0.485525,365539.000000,1118044.000000
1420.884678,-0.478515,365230.000000,1099213.000000
1424.119582,-0.471323,365533.000000,1082055.000000
1427.350086,-0.466123,364906.000000,1067344.000000
1430.576190,-0.459677,365583.000000,1053570.000000
1433.797894,-0.455136,365648.000000,1042796.000000
1437.015198,-0.450820,365698.000000,1032624.000000
1441.298091,-0.447563,364890.000000,1022644.000000
1444.505128,-0.444579,364741.000000,1015227.000000
1447.707765,-0.441305,364393.000000,1006643.000000
1450.906001,-0.439557,363044.000000,998887.000000
1454.099838,-0.436730,362635.000000,991287.000000
1457.289274,-0.433826,361653.000000,982014.000000
1461.535011,-0.429051,360303.000000,967651.000000
1464.714180,-0.426807,358064.000000,956682.000000
1467.888950,-0.422448,356949.000000,944179.000000
1471.059319,-0.418119,355912.000000,932099.000000
1474.225288,-0.414009,353737.000000,917676.000000
1477.386857,-0.410235,352477.000000,906496.000000
1480.544025,-0.408221,349693.000000,895174.000000
1484.746739,-0.404070,347943.000000,882222.000000
1487.893641,-0.404324,344781.000000,874716.000000
1491.036142,-0.403846,342531.000000,868053.000000
1494.174244,-0.402924,340170.000000,860241.000000
1497.307945,-0.402862,337701.000000,853876.000000
1500.437247,-0.404123,334446.000000,848104.000000
1503.562148,-0.404860,331876.000000,843016.000000
1507.721838,-0.405620,327918.000000,834422.000000
1510.836473,-0.406556,324967.000000,828696.000000
1513.946707,-0.407768,321718.000000,822703.000000
1517.052541,-0.406652,319073.000000,813845.000000
1520.153975,-0.407203,315575.000000,805946.000000
1523.251008,-0.408792,311252.000000,797819.000000
1527.373542,-0.407542,306492.000000,783360.000000
1530.460309,-0.407126,302471.000000,772342.000000
1533.542676,-0.405693,298873.000000,760641.000000
1536.620642,-0.406021,294593.000000,750315.000000
1539.694209,-0.406753,290524.000000,741199.000000
1542.763375,-0.407484,285805.000000,730388.000000
1545.828141,-0.409143,281854.000000,723048.000000
1549.907652,-0.413564,274841.000000,712271.000000
1552.962151,-0.415282,270515.000000,703839.000000
1556.012250,-0.417554,265203.000000,693638.000000
1559.057949,-0.419889,260042.000000,683806.000000
1562.099248,-0.418623,255973.000000,671146.000000
1565.136147,-0.419488,250523.000000,658167.000000
1568.168646,-0.419599,245616.000000,645439.000000
1572.205133,-0.420829,238774.000000,629240.000000
1575.227365,-0.421717,234179.000000,618393.000000
1578.245196,-0.422252,228934.000000,605289.000000
1581.258628,-0.425185,223478.000000,594867.000000
1584.267659,-0.426723,218239.000000,582982.000000
1587.272290,-0.427880,213357.000000,571461.000000
1591.271621,-0.430096,206678.000000,556404.000000
1594.265985,-0.434185,200655.000000,545299.000000
1597.255949,-0.436419,196105.000000,535683.000000
1600.241513,-0.439438,191413.000000,526514.000000
1603.222677,-0.443004,186271.000000,516594.000000
1606.199441,-0.445931,181567.000000,506953.000000
1609.171805,-0.451943,176656.000000,500117.000000
1613.128112,-0.456968,170106.000000,487178.000000
1616.090209,-0.461758,165195.000000,478360.000000
1619.047905,-0.465601,160661.000000,469366.000000
1622.001202,-0.472646,154762.000000,459526.000000
1624.950098,-0.479451,149284.000000,450261.000000
1627.894595,-0.484701,144304.000000,440534.000000
1630.834691,-0.491718,138573.000000,429929.000000
1634.747975,-0.499449,131373.000000,414911.000000
1637.677804,-0.505594,126061.000000,403808.000000
1640.603233,-0.513954,120043.000000,392004.000000
1643.524262,-0.523951,114222.000000,381681.000000
1646.440891,-0.528890,109595.000000,370408.000000
1649.353120,-0.535966,104146.000000,357774.000000
1653.229247,-0.524471,102337.000000,342376.000000
1656.131209,-0.519720,100118.000000,331308.000000
1659.028770,-0.523807,95076.000000,317598.000000
1661.921932,-0.513521,93881.000000,306266.000000
1664.810693,-0.509277,90392.000000,292016.000000
1667.695055,-0.507873,85969.000000,276831.000000
1670.575016,-0.501432,82225.000000,260877.000000
1674.408120,-0.478041,78925.000000,237277.000000
1677.277814,-inf,0.000000,217417.000000
1680.143108,-inf,0.000000,193729.000000
1683.004002,nan,-2147483648.000000,169047.000000
1685.860496,nan,-2147483648.000000,146504.000000
1688.712590,nan,-2147483648.000000,122123.000000
1691.560283,nan,-2147483648.000000,102364.000000
1695.350364,nan,-2147483648.000000,79498.000000
1698.187790,nan,-2147483648.000000,64564.000000
1701.020817,-inf,0.000000,53932.000000
