Method:,erol,,
Host Date-Time:,7/12/23 @ 13:59:5,,
Header Version:,1,,
System Temp (C):,40.16,,
Detector Temp (C):,24.74,,
Humidity (%):,18.33,,
Lamp PD:,3499,,
Shift Vector Coefficients:,-4.80707,0.053312,-0.000138677,,
Pixel to Wavelength Coefficients:,1763.6,-0.910608,-0.000244451,,
Serial Number:,6110061,,
Scan Config Name:,erol,,
Scan Config Type:,Slew,,
Section 1,,
Start wavelength (nm):,900,,
End wavelength (nm):,1700,,
Pattern Pixel Width (nm):,  11.71,,,,
Exposure (ms):,  0.635,,,,
Digital Resolution:,228,,
Num Repeats:,1,,
PGA Gain:,64,,
Total Measurement Time in sec:,  1.593,,
Wavelength (nm),Absorbance (AU),Reference Signal (unitless),Sample Signal (unitless)
901.370984,-0.752655,22318.000000,126273.000000
905.248306,-0.738733,26694.000000,146267.000000
909.121227,-0.729523,30240.000000,162220.000000
912.989749,-0.703665,35053.000000,177170.000000
918.140932,-0.697074,39668.000000,197476.000000
921.999187,-0.692929,44171.000000,217804.000000
925.853041,-0.686538,49463.000000,240336.000000
929.702495,-0.687257,55176.000000,268539.000000
933.547549,-0.681821,62603.000000,300896.000000
937.388203,-0.676256,70557.000000,334808.000000
941.224457,-0.669846,79215.000000,370385.000000
946.332618,-0.663118,90003.000000,414357.000000
950.158605,-0.660755,97001.000000,444152.000000
953.980191,-0.655146,104340.000000,471625.000000
957.797378,-0.651145,111157.000000,497831.000000
961.610165,-0.650162,117414.000000,524665.000000
965.418551,-0.646340,124361.000000,550839.000000
969.222537,-0.643057,131496.000000,578055.000000
974.287675,-0.640735,140925.000000,616202.000000
978.081394,-0.639257,148023.000000,645039.000000
981.870713,-0.637921,155197.000000,674224.000000
985.655632,-0.637515,162010.000000,703165.000000
989.436151,-0.633400,170019.000000,730966.000000
993.212270,-0.633320,176266.000000,757685.000000
998.240251,-0.630170,184964.000000,789328.000000
1002.006103,-0.628488,190519.000000,809890.000000
1005.767554,-0.625613,196102.000000,828124.000000
1009.524606,-0.624959,200098.000000,843727.000000
1013.277258,-0.622663,204164.000000,856331.000000
1017.025509,-0.622197,206631.000000,865750.000000
1020.769360,-0.620268,209246.000000,872820.000000
1025.754318,-0.617523,211932.000000,878456.000000
1029.487902,-0.615802,213316.000000,880695.000000
1033.217086,-0.615694,213821.000000,882561.000000
1036.941870,-0.614690,213615.000000,879674.000000
1040.662255,-0.612946,213930.000000,877440.000000
1044.378238,-0.612526,213905.000000,876490.000000
1048.089822,-0.611265,213173.000000,870958.000000
1053.031756,-0.610324,211884.000000,863817.000000
1056.733073,-0.609860,211098.000000,859695.000000
1060.429990,-0.609183,209880.000000,853402.000000
1064.122506,-0.607701,209078.000000,847245.000000
1067.810623,-0.608442,208224.000000,845225.000000
1071.494339,-0.608391,206922.000000,839843.000000
1076.399116,-0.607862,206676.000000,837822.000000
1080.072566,-0.607807,206200.000000,835787.000000
1083.741615,-0.608450,205636.000000,834736.000000
1087.406264,-0.607246,205874.000000,833389.000000
1091.066513,-0.606134,205797.000000,830947.000000
1094.722362,-0.607552,205514.000000,832517.000000
1098.373811,-0.608341,205628.000000,834495.000000
1103.235565,-0.605065,206788.000000,832896.000000
1106.876747,-0.606347,206389.000000,833745.000000
1110.513529,-0.606781,206615.000000,835494.000000
1114.145910,-0.606639,206738.000000,835717.000000
1117.773892,-0.606982,206547.000000,835605.000000
1121.397473,-0.606655,207088.000000,837163.000000
1125.016654,-0.608530,206464.000000,838251.000000
1129.835385,-0.605680,207418.000000,836616.000000
1133.444299,-0.606283,207695.000000,838897.000000
1137.048813,-0.603231,208493.000000,836224.000000
1140.648927,-0.603251,208223.000000,835179.000000
1144.244641,-0.602609,208337.000000,834402.000000
1147.835955,-0.600608,208774.000000,832308.000000
1152.617529,-0.600032,208238.000000,829071.000000
1156.198576,-0.597856,208484.000000,825902.000000
1159.775223,-0.596355,208962.000000,824940.000000
1163.347470,-0.594673,209317.000000,823148.000000
1166.915316,-0.592239,209935.000000,820963.000000
1170.478763,-0.588828,211435.000000,820361.000000
1174.037809,-0.583594,213105.000000,816936.000000
1178.776359,-0.580064,214394.000000,815223.000000
1182.325139,-0.571792,217962.000000,813154.000000
1185.869518,-0.566973,220075.000000,811977.000000
1189.409497,-0.561401,222694.000000,811165.000000
1192.945076,-0.557995,224594.000000,811695.000000
1196.476255,-0.555183,226828.000000,814479.000000
1200.003034,-0.551804,229675.000000,818310.000000
1204.698561,-0.550378,232729.000000,826472.000000
1208.215073,-0.549103,235830.000000,835030.000000
1211.727185,-0.549788,238631.000000,846282.000000
1215.234896,-0.549781,241974.000000,858124.000000
1218.738208,-0.550642,245450.000000,872178.000000
1222.237119,-0.552213,248996.000000,887984.000000
1226.895489,-0.554386,254001.000000,910377.000000
1230.384134,-0.555372,257796.000000,926079.000000
1233.868378,-0.557760,261030.000000,942867.000000
1237.348222,-0.560439,264910.000000,962802.000000
1240.823666,-0.561143,269187.000000,979934.000000
1244.294710,-0.561123,274535.000000,999357.000000
1247.761354,-0.563224,278817.000000,1019866.000000
1252.376701,-0.564005,285943.000000,1047814.000000
1255.833078,-0.563707,292339.000000,1070517.000000
1259.285055,-0.563283,298387.000000,1091598.000000
1262.732632,-0.563534,303484.000000,1110888.000000
1266.175808,-0.563859,308643.000000,1130618.000000
1269.614584,-0.563442,313923.000000,1148856.000000
1273.048961,-0.563168,319097.000000,1167053.000000
1277.621284,-0.564901,324380.000000,1191120.000000
1281.045394,-0.564193,329793.000000,1209022.000000
1284.465103,-0.565566,333450.000000,1226300.000000
1287.880412,-0.566599,337104.000000,1242691.000000
1291.291321,-0.567340,340768.000000,1258342.000000
1294.697830,-0.567506,344605.000000,1272997.000000
1299.232997,-0.567891,349244.000000,1291279.000000
1302.629239,-0.567909,352441.000000,1303153.000000
1306.021081,-0.568272,355144.000000,1314244.000000
1309.408522,-0.567776,357732.000000,1322311.000000
1312.791564,-0.567552,360160.000000,1330599.000000
1316.170205,-0.567673,362173.000000,1338410.000000
1319.544447,-0.566854,364403.000000,1344112.000000
1324.036591,-0.567756,366317.000000,1353984.000000
1327.400565,-0.568492,366589.000000,1357285.000000
1330.760139,-0.566243,368623.000000,1357768.000000
1334.115313,-0.566785,368498.000000,1359003.000000
1337.466087,-0.565195,370046.000000,1359724.000000
1340.812461,-0.564091,370709.000000,1358703.000000
1344.154435,-0.562060,371502.000000,1355254.000000
1348.603555,-0.559329,371615.000000,1347168.000000
1351.935262,-0.557359,370997.000000,1338841.000000
1355.262569,-0.552883,371791.000000,1327950.000000
1358.585475,-0.550074,370879.000000,1316152.000000
1361.903982,-0.545921,370539.000000,1302431.000000
1365.218088,-0.540674,371657.000000,1290674.000000
1369.630052,-0.534639,372397.000000,1275396.000000
1372.933891,-0.531316,372524.000000,1266106.000000
1376.233331,-0.527541,372314.000000,1254441.000000
1379.528370,-0.524660,371243.000000,1242562.000000
1382.819009,-0.523269,369231.000000,1231876.000000
1386.105248,-0.521316,367705.000000,1221280.000000
1389.387087,-0.518746,367073.000000,1211988.000000
1393.756027,-0.516921,365715.000000,1202440.000000
1397.027599,-0.513784,365152.000000,1191950.000000
1400.294771,-0.509554,365097.000000,1180219.000000
1403.557542,-0.505643,364333.000000,1167190.000000
1406.815914,-0.499398,365413.000000,1153937.000000
1410.069885,-0.492284,365734.000000,1136185.000000
1413.319456,-0.486358,364947.000000,1118376.000000
1417.645373,-0.476373,365539.000000,1094730.000000
1420.884678,-0.469479,365230.000000,1076579.000000
1424.119582,-0.462911,365533.000000,1061298.000000
1427.350086,-0.456988,364906.000000,1045128.000000
1430.576190,-0.450354,365583.000000,1031194.000000
1433.797894,-0.446033,365648.000000,1021166.000000
1437.015198,-0.441405,365698.000000,1010479.000000
1441.298091,-0.437530,364890.000000,999290.000000
1444.505128,-0.435000,364741.000000,993081.000000
1447.707765,-0.432120,364393.000000,985576.000000
1450.906001,-0.430181,363044.000000,977552.000000
1454.099838,-0.426364,362635.000000,967907.000000
1457.289274,-0.424348,361653.000000,960815.000000
1461.535011,-0.419918,360303.000000,947514.000000
1464.714180,-0.416772,358064.000000,934830.000000
1467.888950,-0.413000,356949.000000,923860.000000
1471.059319,-0.407570,355912.000000,909731.000000
1474.225288,-0.404129,353737.000000,897035.000000
1477.386857,-0.399653,352477.000000,884675.000000
1480.544025,-0.397705,349693.000000,873759.000000
1484.746739,-0.393951,347943.000000,861904.000000
1487.893641,-0.394395,344781.000000,854945.000000
1491.036142,-0.393471,342531.000000,847561.000000
1494.174244,-0.392854,340170.000000,840523.000000
1497.307945,-0.392585,337701.000000,833907.000000
1500.437247,-0.393652,334446.000000,827900.000000
1503.562148,-0.393391,331876.000000,821044.000000
1507.721838,-0.394531,327918.000000,813386.000000
1510.836473,-0.395326,324967.000000,807543.000000
1513.946707,-0.396095,321718.000000,800885.000000
1517.052541,-0.395546,319073.000000,793297.000000
1520.153975,-0.396612,315575.000000,786529.000000
1523.251008,-0.397961,311252.000000,778168.000000
1527.373542,-0.395638,306492.000000,762179.000000
1530.460309,-0.395617,302471.000000,752143.000000
1533.542676,-0.394729,298873.000000,741678.000000
1536.620642,-0.394897,294593.000000,731341.000000
1539.694209,-0.395665,290524.000000,722516.000000
1542.763375,-0.397043,285805.000000,713038.000000
1545.828141,-0.398177,281854.000000,705020.000000
1549.907652,-0.402549,274841.000000,694434.000000
1552.962151,-0.404874,270515.000000,687172.000000
1556.012250,-0.407473,265203.000000,677722.000000
1559.057949,-0.408893,260042.000000,666709.000000
1562.099248,-0.408499,255973.000000,655682.000000
1565.136147,-0.410370,250523.000000,644492.000000
1568.168646,-0.410658,245616.000000,632288.000000
1572.205133,-0.411885,238774.000000,616414.000000
1575.227365,-0.411817,234179.000000,604456.000000
1578.245196,-0.412248,228934.000000,591505.000000
1581.258628,-0.415154,223478.000000,581285.000000
1584.267659,-0.416882,218239.000000,569921.000000
1587.272290,-0.417701,213357.000000,558223.000000
1591.271621,-0.421101,206678.000000,544998.000000
1594.265985,-0.424906,200655.000000,533772.000000
1597.255949,-0.426487,196105.000000,523571.000000
1600.241513,-0.429842,191413.000000,515007.000000
1603.222677,-0.433082,186271.000000,504926.000000
1606.199441,-0.436886,181567.000000,496504.000000
1609.171805,-0.441967,176656.000000,488760.000000
1613.128112,-0.447374,170106.000000,476534.000000
1616.090209,-0.453020,165195.000000,468832.000000
1619.047905,-0.456372,160661.000000,459497.000000
1622.001202,-0.464048,154762.000000,450518.000000
1624.950098,-0.470534,149284.000000,441110.000000
1627.894595,-0.476369,144304.000000,432163.000000
1630.834691,-0.484875,138573.000000,423208.000000
1634.747975,-0.492159,131373.000000,408005.000000
1637.677804,-0.498987,126061.000000,397711.000000
1640.603233,-0.507955,120043.000000,386627.000000
1643.524262,-0.517541,114222.000000,376089.000000
1646.440891,-0.521617,109595.000000,364257.000000
1649.353120,-0.529566,104146.000000,352540.000000
1653.229247,-0.517066,102337.000000,336588.000000
1656.131209,-0.511975,100118.000000,325452.000000
1659.028770,-0.518621,95076.000000,313828.000000
1661.921932,-0.504197,93881.000000,299761.000000
1664.810693,-0.501862,90392.000000,287073.000000
1667.695055,-0.501029,85969.000000,272503.000000
1670.575016,-0.496835,82225.000000,258130.000000
1674.408120,-0.471652,78925.000000,233812.000000
1677.277814,-inf,0.000000,213561.000000
1680.143108,-inf,0.000000,191793.000000
1683.004002,nan,-2147483648.000000,168338.000000
1685.860496,nan,-2147483648.000000,143770.000000
1688.712590,nan,-2147483648.000000,121611.000000
1691.560283,nan,-2147483648.000000,101636.000000
1695.350364,nan,-2147483648.000000,78806.000000
1698.187790,nan,-2147483648.000000,65036.000000
1701.020817,-inf,0.000000,53788.000000
