Method:,erol,,
Host Date-Time:,7/12/23 @ 13:56:26,,
Header Version:,1,,
System Temp (C):,39.3,,
Detector Temp (C):,24.9,,
Humidity (%):,19.29,,
Lamp PD:,3499,,
Shift Vector Coefficients:,-4.80707,0.053312,-0.000138677,,
Pixel to Wavelength Coefficients:,1763.6,-0.910608,-0.000244451,,
Serial Number:,6110061,,
Scan Config Name:,erol,,
Scan Config Type:,Slew,,
Section 1,,
Start wavelength (nm):,900,,
End wavelength (nm):,1700,,
Pattern Pixel Width (nm):,  11.71,,,,
Exposure (ms):,  0.635,,,,
Digital Resolution:,228,,
Num Repeats:,1,,
PGA Gain:,64,,
Total Measurement Time in sec:,  1.594,,
Wavelength (nm),Absorbance (AU),Reference Signal (unitless),Sample Signal (unitless)
901.370984,-0.757263,22318.000000,127620.000000
905.248306,-0.745143,26694.000000,148442.000000
909.121227,-0.737849,30240.000000,165360.000000
912.989749,-0.707562,35053.000000,178767.000000
918.140932,-0.702129,39668.000000,199788.000000
921.999187,-0.697739,44171.000000,220230.000000
925.853041,-0.691149,49463.000000,242901.000000
929.702495,-0.692867,55176.000000,272030.000000
933.547549,-0.688298,62603.000000,305417.000000
937.388203,-0.683158,70557.000000,340172.000000
941.224457,-0.677602,79215.000000,377059.000000
946.332618,-0.669538,90003.000000,420528.000000
950.158605,-0.666405,97001.000000,449968.000000
953.980191,-0.661528,104340.000000,478607.000000
957.797378,-0.657417,111157.000000,505073.000000
961.610165,-0.655353,117414.000000,530974.000000
965.418551,-0.652898,124361.000000,559219.000000
969.222537,-0.650188,131496.000000,587625.000000
974.287675,-0.647432,140925.000000,625778.000000
978.081394,-0.645557,148023.000000,654465.000000
981.870713,-0.644290,155197.000000,684184.000000
985.655632,-0.644274,162010.000000,714193.000000
989.436151,-0.639836,170019.000000,741880.000000
993.212270,-0.640673,176266.000000,770623.000000
998.240251,-0.637153,184964.000000,802122.000000
1002.006103,-0.636126,190519.000000,824260.000000
1005.767554,-0.633310,196102.000000,842931.000000
1009.524606,-0.633005,200098.000000,859504.000000
1013.277258,-0.630130,204164.000000,871183.000000
1017.025509,-0.629196,206631.000000,879815.000000
1020.769360,-0.627446,209246.000000,887367.000000
1025.754318,-0.625693,211932.000000,895138.000000
1029.487902,-0.623581,213316.000000,896611.000000
1033.217086,-0.622755,213821.000000,897026.000000
1036.941870,-0.623074,213615.000000,896821.000000
1040.662255,-0.621372,213930.000000,894631.000000
1044.378238,-0.619577,213905.000000,890836.000000
1048.089822,-0.619648,213173.000000,887934.000000
1053.031756,-0.618927,211884.000000,881099.000000
1056.733073,-0.617749,211098.000000,875453.000000
1060.429990,-0.617528,209880.000000,869959.000000
1064.122506,-0.616345,209078.000000,864278.000000
1067.810623,-0.616137,208224.000000,860336.000000
1071.494339,-0.616982,206922.000000,856620.000000
1076.399116,-0.616262,206676.000000,854185.000000
1080.072566,-0.615830,206200.000000,851371.000000
1083.741615,-0.616886,205636.000000,851108.000000
1087.406264,-0.615524,205874.000000,849425.000000
1091.066513,-0.614938,205797.000000,847964.000000
1094.722362,-0.616713,205514.000000,850266.000000
1098.373811,-0.616523,205628.000000,850365.000000
1103.235565,-0.614741,206788.000000,851661.000000
1106.876747,-0.616376,206389.000000,853223.000000
1110.513529,-0.615327,206615.000000,852097.000000
1114.145910,-0.615496,206738.000000,852936.000000
1117.773892,-0.616338,206547.000000,853801.000000
1121.397473,-0.615435,207088.000000,854260.000000
1125.016654,-0.616952,206464.000000,854666.000000
1129.835385,-0.614816,207418.000000,854402.000000
1133.444299,-0.614184,207695.000000,854299.000000
1137.048813,-0.612243,208493.000000,853758.000000
1140.648927,-0.611793,208223.000000,851768.000000
1144.244641,-0.610411,208337.000000,849527.000000
1147.835955,-0.608887,208774.000000,848327.000000
1152.617529,-0.608358,208238.000000,845120.000000
1156.198576,-0.606700,208484.000000,842893.000000
1159.775223,-0.604028,208962.000000,839644.000000
1163.347470,-0.602340,209317.000000,837808.000000
1166.915316,-0.600366,209935.000000,836470.000000
1170.478763,-0.596436,211435.000000,834859.000000
1174.037809,-0.592233,213105.000000,833348.000000
1178.776359,-0.587927,214394.000000,830118.000000
1182.325139,-0.579454,217962.000000,827627.000000
1185.869518,-0.574593,220075.000000,826350.000000
1189.409497,-0.568930,222694.000000,825350.000000
1192.945076,-0.565063,224594.000000,825014.000000
1196.476255,-0.563085,226828.000000,829434.000000
1200.003034,-0.558843,229675.000000,831681.000000
1204.698561,-0.557732,232729.000000,840586.000000
1208.215073,-0.556410,235830.000000,849198.000000
1211.727185,-0.557076,238631.000000,860604.000000
1215.234896,-0.557613,241974.000000,873738.000000
1218.738208,-0.558257,245450.000000,887605.000000
1222.237119,-0.559848,248996.000000,903733.000000
1226.895489,-0.561407,254001.000000,925215.000000
1230.384134,-0.563238,257796.000000,943005.000000
1233.868378,-0.566165,261030.000000,961292.000000
1237.348222,-0.567416,264910.000000,978396.000000
1240.823666,-0.568865,269187.000000,997515.000000
1244.294710,-0.568746,274535.000000,1017053.000000
1247.761354,-0.570710,278817.000000,1037599.000000
1252.376701,-0.572446,285943.000000,1068380.000000
1255.833078,-0.572033,292339.000000,1091239.000000
1259.285055,-0.571280,298387.000000,1111884.000000
1262.732632,-0.571752,303484.000000,1132108.000000
1266.175808,-0.572003,308643.000000,1152019.000000
1269.614584,-0.571547,313923.000000,1170497.000000
1273.048961,-0.571432,319097.000000,1189474.000000
1277.621284,-0.573395,324380.000000,1214644.000000
1281.045394,-0.573200,329793.000000,1234359.000000
1284.465103,-0.574013,333450.000000,1250385.000000
1287.880412,-0.575481,337104.000000,1268368.000000
1291.291321,-0.576393,340768.000000,1284848.000000
1294.697830,-0.576874,344605.000000,1300754.000000
1299.232997,-0.577063,349244.000000,1318840.000000
1302.629239,-0.576816,352441.000000,1330155.000000
1306.021081,-0.577184,355144.000000,1341494.000000
1309.408522,-0.577023,357732.000000,1350768.000000
1312.791564,-0.576859,360160.000000,1359423.000000
1316.170205,-0.576998,362173.000000,1367457.000000
1319.544447,-0.576715,364403.000000,1374981.000000
1324.036591,-0.576587,366317.000000,1381797.000000
1327.400565,-0.577583,366589.000000,1385996.000000
1330.760139,-0.575512,368623.000000,1387057.000000
1334.115313,-0.575622,368498.000000,1386938.000000
1337.466087,-0.573850,370046.000000,1387094.000000
1340.812461,-0.572636,370709.000000,1385701.000000
1344.154435,-0.570928,371502.000000,1383213.000000
1348.603555,-0.567886,371615.000000,1373976.000000
1351.935262,-0.565678,370997.000000,1364735.000000
1355.262569,-0.561085,371791.000000,1353267.000000
1358.585475,-0.558394,370879.000000,1341610.000000
1361.903982,-0.554359,370539.000000,1327984.000000
1365.218088,-0.548607,371657.000000,1314465.000000
1369.630052,-0.542896,372397.000000,1299878.000000
1372.933891,-0.539509,372524.000000,1290219.000000
1376.233331,-0.535821,372314.000000,1278588.000000
1379.528370,-0.533210,371243.000000,1267268.000000
1382.819009,-0.531237,369231.000000,1254685.000000
1386.105248,-0.529678,367705.000000,1245024.000000
1389.387087,-0.527384,367073.000000,1236336.000000
1393.756027,-0.524804,365715.000000,1224467.000000
1397.027599,-0.521850,365152.000000,1214294.000000
1400.294771,-0.517662,365097.000000,1202459.000000
1403.557542,-0.513812,364333.000000,1189352.000000
1406.815914,-0.507318,365413.000000,1175173.000000
1410.069885,-0.500783,365734.000000,1158640.000000
1413.319456,-0.494391,364947.000000,1139255.000000
1417.645373,-0.483909,365539.000000,1113890.000000
1420.884678,-0.477047,365230.000000,1095503.000000
1424.119582,-0.469941,365533.000000,1078619.000000
1427.350086,-0.464872,364906.000000,1064273.000000
1430.576190,-0.458722,365583.000000,1051255.000000
1433.797894,-0.453448,365648.000000,1038750.000000
1437.015198,-0.449246,365698.000000,1028889.000000
1441.298091,-0.445440,364890.000000,1017658.000000
1444.505128,-0.441845,364741.000000,1008856.000000
1447.707765,-0.439037,364393.000000,1001399.000000
1450.906001,-0.437435,363044.000000,994018.000000
1454.099838,-0.433988,362635.000000,985048.000000
1457.289274,-0.431319,361653.000000,976362.000000
1461.535011,-0.427072,360303.000000,963251.000000
1464.714180,-0.424147,358064.000000,950841.000000
1467.888950,-0.420500,356949.000000,939954.000000
1471.059319,-0.415316,355912.000000,926101.000000
1474.225288,-0.412484,353737.000000,914460.000000
1477.386857,-0.407674,352477.000000,901166.000000
1480.544025,-0.405841,349693.000000,890282.000000
1484.746739,-0.401288,347943.000000,876589.000000
1487.893641,-0.401973,344781.000000,869994.000000
1491.036142,-0.401207,342531.000000,862794.000000
1494.174244,-0.400669,340170.000000,855786.000000
1497.307945,-0.400203,337701.000000,848663.000000
1500.437247,-0.401696,334446.000000,843377.000000
1503.562148,-0.401667,331876.000000,836840.000000
1507.721838,-0.402599,327918.000000,828637.000000
1510.836473,-0.403600,324967.000000,823075.000000
1513.946707,-0.405172,321718.000000,817800.000000
1517.052541,-0.404300,319073.000000,809450.000000
1520.153975,-0.405143,315575.000000,802132.000000
1523.251008,-0.405777,311252.000000,792299.000000
1527.373542,-0.405090,306492.000000,778949.000000
1530.460309,-0.404838,302471.000000,768284.000000
1533.542676,-0.403741,298873.000000,757229.000000
1536.620642,-0.403422,294593.000000,745838.000000
1539.694209,-0.404040,290524.000000,736584.000000
1542.763375,-0.405078,285805.000000,726353.000000
1545.828141,-0.407311,281854.000000,720005.000000
1549.907652,-0.411634,274841.000000,709113.000000
1552.962151,-0.412427,270515.000000,699228.000000
1556.012250,-0.415567,265203.000000,690471.000000
1559.057949,-0.417112,260042.000000,679447.000000
1562.099248,-0.416456,255973.000000,667805.000000
1565.136147,-0.417568,250523.000000,655263.000000
1568.168646,-0.418107,245616.000000,643226.000000
1572.205133,-0.419136,238774.000000,626792.000000
1575.227365,-0.420024,234179.000000,615987.000000
1578.245196,-0.420744,228934.000000,603190.000000
1581.258628,-0.421890,223478.000000,590371.000000
1584.267659,-0.424844,218239.000000,580465.000000
1587.272290,-0.425639,213357.000000,568520.000000
1591.271621,-0.429408,206678.000000,555523.000000
1594.265985,-0.432338,200655.000000,542985.000000
1597.255949,-0.435100,196105.000000,534058.000000
1600.241513,-0.437574,191413.000000,524258.000000
1603.222677,-0.441191,186271.000000,514442.000000
1606.199441,-0.446438,181567.000000,507546.000000
1609.171805,-0.449112,176656.000000,496867.000000
1613.128112,-0.456015,170106.000000,486110.000000
1616.090209,-0.461061,165195.000000,477593.000000
1619.047905,-0.464430,160661.000000,468102.000000
1622.001202,-0.472119,154762.000000,458969.000000
1624.950098,-0.479013,149284.000000,449807.000000
1627.894595,-0.483357,144304.000000,439173.000000
1630.834691,-0.491225,138573.000000,429441.000000
1634.747975,-0.499584,131373.000000,415040.000000
1637.677804,-0.505128,126061.000000,403375.000000
1640.603233,-0.514608,120043.000000,392595.000000
1643.524262,-0.524846,114222.000000,382469.000000
1646.440891,-0.526887,109595.000000,368704.000000
1649.353120,-0.536107,104146.000000,357890.000000
1653.229247,-0.526119,102337.000000,343678.000000
1656.131209,-0.519696,100118.000000,331290.000000
1659.028770,-0.524061,95076.000000,317784.000000
1661.921932,-0.514187,93881.000000,306736.000000
1664.810693,-0.509168,90392.000000,291943.000000
1667.695055,-0.508901,85969.000000,277487.000000
1670.575016,-0.502285,82225.000000,261390.000000
1674.408120,-0.477305,78925.000000,236875.000000
1677.277814,-inf,0.000000,217445.000000
1680.143108,-inf,0.000000,193986.000000
1683.004002,nan,-2147483648.000000,169064.000000
1685.860496,nan,-2147483648.000000,146284.000000
1688.712590,nan,-2147483648.000000,122902.000000
1691.560283,nan,-2147483648.000000,103270.000000
1695.350364,nan,-2147483648.000000,78737.000000
1698.187790,nan,-2147483648.000000,65618.000000
1701.020817,-inf,0.000000,54862.000000
