Method:,erol,,
Host Date-Time:,7/12/23 @ 13:58:30,,
Header Version:,1,,
System Temp (C):,40.01,,
Detector Temp (C):,24.78,,
Humidity (%):,18.73,,
Lamp PD:,3405,,
Shift Vector Coefficients:,-4.80707,0.053312,-0.000138677,,
Pixel to Wavelength Coefficients:,1763.6,-0.910608,-0.000244451,,
Serial Number:,6110061,,
Scan Config Name:,erol,,
Scan Config Type:,Slew,,
Section 1,,
Start wavelength (nm):,900,,
End wavelength (nm):,1700,,
Pattern Pixel Width (nm):,  11.71,,,,
Exposure (ms):,  0.635,,,,
Digital Resolution:,228,,
Num Repeats:,1,,
PGA Gain:,64,,
Total Measurement Time in sec:,  1.591,,
Wavelength (nm),Absorbance (AU),Reference Signal (unitless),Sample Signal (unitless)
901.370984,-0.750770,22318.000000,125726.000000
905.248306,-0.735529,26694.000000,145192.000000
909.121227,-0.730891,30240.000000,162732.000000
912.989749,-0.704228,35053.000000,177400.000000
918.140932,-0.699020,39668.000000,198363.000000
921.999187,-0.691467,44171.000000,217072.000000
925.853041,-0.685108,49463.000000,239546.000000
929.702495,-0.685789,55176.000000,267633.000000
933.547549,-0.681337,62603.000000,300561.000000
937.388203,-0.677582,70557.000000,335832.000000
941.224457,-0.669683,79215.000000,370246.000000
946.332618,-0.661376,90003.000000,412699.000000
950.158605,-0.657898,97001.000000,441239.000000
953.980191,-0.653182,104340.000000,469497.000000
957.797378,-0.649654,111157.000000,496125.000000
961.610165,-0.648873,117414.000000,523110.000000
965.418551,-0.644940,124361.000000,549066.000000
969.222537,-0.642147,131496.000000,576845.000000
974.287675,-0.639499,140925.000000,614450.000000
978.081394,-0.637746,148023.000000,642799.000000
981.870713,-0.635862,155197.000000,671036.000000
985.655632,-0.635261,162010.000000,699524.000000
989.436151,-0.631912,170019.000000,728466.000000
993.212270,-0.631871,176266.000000,755161.000000
998.240251,-0.628293,184964.000000,785924.000000
1002.006103,-0.627449,190519.000000,807956.000000
1005.767554,-0.624595,196102.000000,826184.000000
1009.524606,-0.623248,200098.000000,840409.000000
1013.277258,-0.621203,204164.000000,853458.000000
1017.025509,-0.620714,206631.000000,862798.000000
1020.769360,-0.618897,209246.000000,870069.000000
1025.754318,-0.615979,211932.000000,875337.000000
1029.487902,-0.614711,213316.000000,878485.000000
1033.217086,-0.613357,213821.000000,877824.000000
1036.941870,-0.613488,213615.000000,877242.000000
1040.662255,-0.612011,213930.000000,875553.000000
1044.378238,-0.610420,213905.000000,872250.000000
1048.089822,-0.609528,213173.000000,867481.000000
1053.031756,-0.608394,211884.000000,859988.000000
1056.733073,-0.608174,211098.000000,856363.000000
1060.429990,-0.607741,209880.000000,850573.000000
1064.122506,-0.606540,209078.000000,844984.000000
1067.810623,-0.606301,208224.000000,841069.000000
1071.494339,-0.607849,206922.000000,838794.000000
1076.399116,-0.605622,206676.000000,833513.000000
1080.072566,-0.606065,206200.000000,832442.000000
1083.741615,-0.606734,205636.000000,831445.000000
1087.406264,-0.605429,205874.000000,829910.000000
1091.066513,-0.604601,205797.000000,828018.000000
1094.722362,-0.605513,205514.000000,828619.000000
1098.373811,-0.606671,205628.000000,831292.000000
1103.235565,-0.604415,206788.000000,831649.000000
1106.876747,-0.605277,206389.000000,831694.000000
1110.513529,-0.604975,206615.000000,832025.000000
1114.145910,-0.605306,206738.000000,833156.000000
1117.773892,-0.605292,206547.000000,832360.000000
1121.397473,-0.605212,207088.000000,834386.000000
1125.016654,-0.606209,206464.000000,833783.000000
1129.835385,-0.604670,207418.000000,834673.000000
1133.444299,-0.604559,207695.000000,835574.000000
1137.048813,-0.601908,208493.000000,833681.000000
1140.648927,-0.602276,208223.000000,833306.000000
1144.244641,-0.601030,208337.000000,831374.000000
1147.835955,-0.599158,208774.000000,829535.000000
1152.617529,-0.598301,208238.000000,825774.000000
1156.198576,-0.597086,208484.000000,824439.000000
1159.775223,-0.595479,208962.000000,823277.000000
1163.347470,-0.593498,209317.000000,820924.000000
1166.915316,-0.591807,209935.000000,820147.000000
1170.478763,-0.587967,211435.000000,818736.000000
1174.037809,-0.583987,213105.000000,817675.000000
1178.776359,-0.579914,214394.000000,814941.000000
1182.325139,-0.572174,217962.000000,813870.000000
1185.869518,-0.567024,220075.000000,812073.000000
1189.409497,-0.561475,222694.000000,811304.000000
1192.945076,-0.558676,224594.000000,812970.000000
1196.476255,-0.555372,226828.000000,814833.000000
1200.003034,-0.552669,229675.000000,819942.000000
1204.698561,-0.551542,232729.000000,828690.000000
1208.215073,-0.550241,235830.000000,837221.000000
1211.727185,-0.550771,238631.000000,848200.000000
1215.234896,-0.550746,241974.000000,860033.000000
1218.738208,-0.551222,245450.000000,873344.000000
1222.237119,-0.551988,248996.000000,887524.000000
1226.895489,-0.554019,254001.000000,909609.000000
1230.384134,-0.555337,257796.000000,926005.000000
1233.868378,-0.558544,261030.000000,944570.000000
1237.348222,-0.560095,264910.000000,962040.000000
1240.823666,-0.561032,269187.000000,979685.000000
1244.294710,-0.560475,274535.000000,997867.000000
1247.761354,-0.563135,278817.000000,1019657.000000
1252.376701,-0.564149,285943.000000,1048163.000000
1255.833078,-0.562874,292339.000000,1068466.000000
1259.285055,-0.562677,298387.000000,1090077.000000
1262.732632,-0.563210,303484.000000,1110058.000000
1266.175808,-0.563921,308643.000000,1130777.000000
1269.614584,-0.562939,313923.000000,1147524.000000
1273.048961,-0.562605,319097.000000,1165542.000000
1277.621284,-0.564357,324380.000000,1189629.000000
1281.045394,-0.563316,329793.000000,1206584.000000
1284.465103,-0.564874,333450.000000,1224347.000000
1287.880412,-0.566292,337104.000000,1241813.000000
1291.291321,-0.566760,340768.000000,1256663.000000
1294.697830,-0.567196,344605.000000,1272090.000000
1299.232997,-0.567448,349244.000000,1289962.000000
1302.629239,-0.567425,352441.000000,1301701.000000
1306.021081,-0.567402,355144.000000,1311615.000000
1309.408522,-0.567514,357732.000000,1321513.000000
1312.791564,-0.567066,360160.000000,1329113.000000
1316.170205,-0.567189,362173.000000,1336920.000000
1319.544447,-0.566564,364403.000000,1343217.000000
1324.036591,-0.566599,366317.000000,1350379.000000
1327.400565,-0.566976,366589.000000,1352557.000000
1330.760139,-0.565927,368623.000000,1356781.000000
1334.115313,-0.566333,368498.000000,1357589.000000
1337.466087,-0.564183,370046.000000,1356559.000000
1340.812461,-0.563525,370709.000000,1356931.000000
1344.154435,-0.561430,371502.000000,1353291.000000
1348.603555,-0.558797,371615.000000,1345521.000000
1351.935262,-0.557275,370997.000000,1338584.000000
1355.262569,-0.552705,371791.000000,1327406.000000
1358.585475,-0.550018,370879.000000,1315983.000000
1361.903982,-0.546129,370539.000000,1303055.000000
1365.218088,-0.541030,371657.000000,1291732.000000
1369.630052,-0.535093,372397.000000,1276731.000000
1372.933891,-0.531520,372524.000000,1266702.000000
1376.233331,-0.528246,372314.000000,1256479.000000
1379.528370,-0.525813,371243.000000,1245865.000000
1382.819009,-0.524280,369231.000000,1234748.000000
1386.105248,-0.522654,367705.000000,1225048.000000
1389.387087,-0.520243,367073.000000,1216172.000000
1393.756027,-0.518086,365715.000000,1205672.000000
1397.027599,-0.515107,365152.000000,1195586.000000
1400.294771,-0.510854,365097.000000,1183756.000000
1403.557542,-0.507596,364333.000000,1172450.000000
1406.815914,-0.500985,365413.000000,1158162.000000
1410.069885,-0.494660,365734.000000,1142420.000000
1413.319456,-0.488562,364947.000000,1124065.000000
1417.645373,-0.478132,365539.000000,1099171.000000
1420.884678,-0.471563,365230.000000,1081757.000000
1424.119582,-0.464297,365533.000000,1064690.000000
1427.350086,-0.458524,364906.000000,1048829.000000
1430.576190,-0.452641,365583.000000,1036637.000000
1433.797894,-0.447721,365648.000000,1025143.000000
1437.015198,-0.443683,365698.000000,1015794.000000
1441.298091,-0.440181,364890.000000,1005409.000000
1444.505128,-0.437557,364741.000000,998945.000000
1447.707765,-0.433920,364393.000000,989669.000000
1450.906001,-0.432707,363044.000000,983256.000000
1454.099838,-0.429365,362635.000000,974618.000000
1457.289274,-0.426930,361653.000000,966545.000000
1461.535011,-0.421908,360303.000000,951867.000000
1464.714180,-0.419249,358064.000000,940176.000000
1467.888950,-0.414746,356949.000000,927581.000000
1471.059319,-0.410481,355912.000000,915849.000000
1474.225288,-0.406564,353737.000000,902079.000000
1477.386857,-0.402460,352477.000000,890412.000000
1480.544025,-0.400377,349693.000000,879151.000000
1484.746739,-0.396727,347943.000000,867431.000000
1487.893641,-0.396336,344781.000000,858775.000000
1491.036142,-0.395403,342531.000000,851340.000000
1494.174244,-0.395178,340170.000000,845034.000000
1497.307945,-0.395291,337701.000000,839118.000000
1500.437247,-0.396230,334446.000000,832830.000000
1503.562148,-0.396395,331876.000000,826743.000000
1507.721838,-0.397211,327918.000000,818420.000000
1510.836473,-0.398255,324967.000000,813007.000000
1513.946707,-0.399300,321718.000000,806818.000000
1517.052541,-0.398513,319073.000000,798736.000000
1520.153975,-0.399197,315575.000000,791224.000000
1523.251008,-0.400455,311252.000000,782649.000000
1527.373542,-0.399369,306492.000000,768756.000000
1530.460309,-0.398508,302471.000000,757167.000000
1533.542676,-0.397848,298873.000000,747024.000000
1536.620642,-0.397294,294593.000000,735388.000000
1539.694209,-0.398196,290524.000000,726738.000000
1542.763375,-0.399696,285805.000000,717407.000000
1545.828141,-0.400956,281854.000000,709545.000000
1549.907652,-0.405594,274841.000000,699320.000000
1552.962151,-0.407355,270515.000000,691108.000000
1556.012250,-0.409882,265203.000000,681492.000000
1559.057949,-0.411417,260042.000000,670596.000000
1562.099248,-0.410232,255973.000000,658304.000000
1565.136147,-0.411612,250523.000000,646338.000000
1568.168646,-0.411218,245616.000000,633103.000000
1572.205133,-0.412121,238774.000000,616749.000000
1575.227365,-0.412472,234179.000000,605368.000000
1578.245196,-0.413827,228934.000000,593659.000000
1581.258628,-0.416417,223478.000000,582978.000000
1584.267659,-0.418291,218239.000000,571773.000000
1587.272290,-0.419102,213357.000000,560027.000000
1591.271621,-0.421169,206678.000000,545084.000000
1594.265985,-0.425256,200655.000000,534203.000000
1597.255949,-0.427022,196105.000000,524217.000000
1600.241513,-0.430578,191413.000000,515881.000000
1603.222677,-0.434203,186271.000000,506230.000000
1606.199441,-0.437101,181567.000000,496750.000000
1609.171805,-0.443286,176656.000000,490246.000000
1613.128112,-0.448320,170106.000000,477573.000000
1616.090209,-0.452958,165195.000000,468765.000000
1619.047905,-0.457153,160661.000000,460324.000000
1622.001202,-0.464008,154762.000000,450477.000000
1624.950098,-0.471004,149284.000000,441588.000000
1627.894595,-0.475320,144304.000000,431120.000000
1630.834691,-0.483078,138573.000000,421460.000000
1634.747975,-0.491115,131373.000000,407025.000000
1637.677804,-0.497322,126061.000000,396189.000000
1640.603233,-0.506670,120043.000000,385484.000000
1643.524262,-0.514385,114222.000000,373366.000000
1646.440891,-0.519623,109595.000000,362588.000000
1649.353120,-0.527054,104146.000000,350507.000000
1653.229247,-0.515156,102337.000000,335111.000000
1656.131209,-0.508735,100118.000000,323033.000000
1659.028770,-0.515347,95076.000000,311471.000000
1661.921932,-0.503416,93881.000000,299222.000000
1664.810693,-0.497772,90392.000000,284382.000000
1667.695055,-0.499446,85969.000000,271511.000000
1670.575016,-0.491913,82225.000000,255221.000000
1674.408120,-0.468011,78925.000000,231860.000000
1677.277814,-inf,0.000000,211153.000000
1680.143108,-inf,0.000000,190066.000000
1683.004002,nan,-2147483648.000000,166042.000000
1685.860496,nan,-2147483648.000000,142947.000000
1688.712590,nan,-2147483648.000000,119710.000000
1691.560283,nan,-2147483648.000000,99937.000000
1695.350364,nan,-2147483648.000000,77320.000000
1698.187790,nan,-2147483648.000000,63178.000000
1701.020817,-inf,0.000000,52101.000000
