Method:,erol,,
Host Date-Time:,7/12/23 @ 13:56:35,,
Header Version:,1,,
System Temp (C):,39.34,,
Detector Temp (C):,26.25,,
Humidity (%):,19.2,,
Lamp PD:,3499,,
Shift Vector Coefficients:,-4.80707,0.053312,-0.000138677,,
Pixel to Wavelength Coefficients:,1763.6,-0.910608,-0.000244451,,
Serial Number:,6110061,,
Scan Config Name:,erol,,
Scan Config Type:,Slew,,
Section 1,,
Start wavelength (nm):,900,,
End wavelength (nm):,1700,,
Pattern Pixel Width (nm):,  11.71,,,,
Exposure (ms):,  0.635,,,,
Digital Resolution:,228,,
Num Repeats:,1,,
PGA Gain:,64,,
Total Measurement Time in sec:,  1.593,,
Wavelength (nm),Absorbance (AU),Reference Signal (unitless),Sample Signal (unitless)
901.370984,-0.753531,22318.000000,126528.000000
905.248306,-0.742305,26694.000000,147475.000000
909.121227,-0.733491,30240.000000,163709.000000
912.989749,-0.708324,35053.000000,179081.000000
918.140932,-0.700871,39668.000000,199210.000000
921.999187,-0.694111,44171.000000,218398.000000
925.853041,-0.688784,49463.000000,241582.000000
929.702495,-0.690221,55176.000000,270378.000000
933.547549,-0.683909,62603.000000,302346.000000
937.388203,-0.679364,70557.000000,337213.000000
941.224457,-0.673622,79215.000000,373619.000000
946.332618,-0.665314,90003.000000,416458.000000
950.158605,-0.661954,97001.000000,445380.000000
953.980191,-0.657339,104340.000000,474013.000000
957.797378,-0.652883,111157.000000,499827.000000
961.610165,-0.651208,117414.000000,525930.000000
965.418551,-0.648847,124361.000000,554027.000000
969.222537,-0.645649,131496.000000,581516.000000
974.287675,-0.642206,140925.000000,618292.000000
978.081394,-0.641404,148023.000000,648236.000000
981.870713,-0.639390,155197.000000,676509.000000
985.655632,-0.638573,162010.000000,704879.000000
989.436151,-0.634452,170019.000000,732739.000000
993.212270,-0.634239,176266.000000,759289.000000
998.240251,-0.631309,184964.000000,791401.000000
1002.006103,-0.630365,190519.000000,813399.000000
1005.767554,-0.627841,196102.000000,832383.000000
1009.524606,-0.626197,200098.000000,846135.000000
1013.277258,-0.623921,204164.000000,858816.000000
1017.025509,-0.623341,206631.000000,868033.000000
1020.769360,-0.621274,209246.000000,874845.000000
1025.754318,-0.619003,211932.000000,881454.000000
1029.487902,-0.616551,213316.000000,882214.000000
1033.217086,-0.616595,213821.000000,884394.000000
1036.941870,-0.615904,213615.000000,882136.000000
1040.662255,-0.615299,213930.000000,882208.000000
1044.378238,-0.612844,213905.000000,877132.000000
1048.089822,-0.612091,213173.000000,872617.000000
1053.031756,-0.611111,211884.000000,865384.000000
1056.733073,-0.609987,211098.000000,859946.000000
1060.429990,-0.610976,209880.000000,856933.000000
1064.122506,-0.608997,209078.000000,849777.000000
1067.810623,-0.608525,208224.000000,845388.000000
1071.494339,-0.609362,206922.000000,841722.000000
1076.399116,-0.607744,206676.000000,837595.000000
1080.072566,-0.608070,206200.000000,836294.000000
1083.741615,-0.609598,205636.000000,836946.000000
1087.406264,-0.608052,205874.000000,834937.000000
1091.066513,-0.607241,205797.000000,833068.000000
1094.722362,-0.608583,205514.000000,834496.000000
1098.373811,-0.609089,205628.000000,835933.000000
1103.235565,-0.606169,206788.000000,835016.000000
1106.876747,-0.607343,206389.000000,835660.000000
1110.513529,-0.607245,206615.000000,836386.000000
1114.145910,-0.607239,206738.000000,836873.000000
1117.773892,-0.608636,206547.000000,838793.000000
1121.397473,-0.607666,207088.000000,839114.000000
1125.016654,-0.608831,206464.000000,838832.000000
1129.835385,-0.606742,207418.000000,838665.000000
1133.444299,-0.606401,207695.000000,839126.000000
1137.048813,-0.604561,208493.000000,838788.000000
1140.648927,-0.604208,208223.000000,837022.000000
1144.244641,-0.603221,208337.000000,835579.000000
1147.835955,-0.601784,208774.000000,834566.000000
1152.617529,-0.600735,208238.000000,830414.000000
1156.198576,-0.598828,208484.000000,827753.000000
1159.775223,-0.597461,208962.000000,827043.000000
1163.347470,-0.596289,209317.000000,826215.000000
1166.915316,-0.594190,209935.000000,824660.000000
1170.478763,-0.590316,211435.000000,823177.000000
1174.037809,-0.586025,213105.000000,821521.000000
1178.776359,-0.582187,214394.000000,819219.000000
1182.325139,-0.573755,217962.000000,816838.000000
1185.869518,-0.568870,220075.000000,815532.000000
1189.409497,-0.563890,222694.000000,815828.000000
1192.945076,-0.560527,224594.000000,816441.000000
1196.476255,-0.557362,226828.000000,818576.000000
1200.003034,-0.554733,229675.000000,823847.000000
1204.698561,-0.553249,232729.000000,831954.000000
1208.215073,-0.551770,235830.000000,840174.000000
1211.727185,-0.552790,238631.000000,852152.000000
1215.234896,-0.552855,241974.000000,864218.000000
1218.738208,-0.553388,245450.000000,877710.000000
1222.237119,-0.554990,248996.000000,893681.000000
1226.895489,-0.556855,254001.000000,915568.000000
1230.384134,-0.558522,257796.000000,932820.000000
1233.868378,-0.560604,261030.000000,949062.000000
1237.348222,-0.562199,264910.000000,966713.000000
1240.823666,-0.563543,269187.000000,985364.000000
1244.294710,-0.562914,274535.000000,1003488.000000
1247.761354,-0.565345,278817.000000,1024859.000000
1252.376701,-0.566236,285943.000000,1053211.000000
1255.833078,-0.565904,292339.000000,1075947.000000
1259.285055,-0.565157,298387.000000,1096319.000000
1262.732632,-0.565963,303484.000000,1117117.000000
1266.175808,-0.565637,308643.000000,1135254.000000
1269.614584,-0.565363,313923.000000,1153947.000000
1273.048961,-0.565096,319097.000000,1172246.000000
1277.621284,-0.566319,324380.000000,1195014.000000
1281.045394,-0.565676,329793.000000,1213158.000000
1284.465103,-0.566960,333450.000000,1230242.000000
1287.880412,-0.568208,337104.000000,1247303.000000
1291.291321,-0.568924,340768.000000,1262940.000000
1294.697830,-0.568882,344605.000000,1277038.000000
1299.232997,-0.568966,349244.000000,1294480.000000
1302.629239,-0.569348,352441.000000,1307477.000000
1306.021081,-0.569407,355144.000000,1317685.000000
1309.408522,-0.569005,357732.000000,1326059.000000
1312.791564,-0.569328,360160.000000,1336053.000000
1316.170205,-0.569154,362173.000000,1342982.000000
1319.544447,-0.568627,364403.000000,1349613.000000
1324.036591,-0.568661,366317.000000,1356806.000000
1327.400565,-0.569699,366589.000000,1361063.000000
1330.760139,-0.567513,368623.000000,1361743.000000
1334.115313,-0.568185,368498.000000,1363391.000000
1337.466087,-0.566469,370046.000000,1363717.000000
1340.812461,-0.565732,370709.000000,1363845.000000
1344.154435,-0.563515,371502.000000,1359805.000000
1348.603555,-0.561215,371615.000000,1353034.000000
1351.935262,-0.559055,370997.000000,1344082.000000
1355.262569,-0.554701,371791.000000,1333522.000000
1358.585475,-0.552126,370879.000000,1322386.000000
1361.903982,-0.548349,370539.000000,1309733.000000
1365.218088,-0.543885,371657.000000,1300251.000000
1369.630052,-0.537790,372397.000000,1284683.000000
1372.933891,-0.534433,372524.000000,1275226.000000
1376.233331,-0.530519,372314.000000,1263072.000000
1379.528370,-0.527627,371243.000000,1251080.000000
1382.819009,-0.526120,369231.000000,1239991.000000
1386.105248,-0.524513,367705.000000,1230305.000000
1389.387087,-0.522162,367073.000000,1221558.000000
1393.756027,-0.519561,365715.000000,1209773.000000
1397.027599,-0.517286,365152.000000,1201600.000000
1400.294771,-0.513124,365097.000000,1189959.000000
1403.557542,-0.509513,364333.000000,1177638.000000
1406.815914,-0.502736,365413.000000,1162841.000000
1410.069885,-0.496832,365734.000000,1148147.000000
1413.319456,-0.491044,364947.000000,1130509.000000
1417.645373,-0.481562,365539.000000,1107888.000000
1420.884678,-0.474649,365230.000000,1089470.000000
1424.119582,-0.467745,365533.000000,1073178.000000
1427.350086,-0.462664,364906.000000,1058876.000000
1430.576190,-0.456730,365583.000000,1046443.000000
1433.797894,-0.452013,365648.000000,1035325.000000
1437.015198,-0.447602,365698.000000,1025002.000000
1441.298091,-0.444401,364890.000000,1015227.000000
1444.505128,-0.441141,364741.000000,1007224.000000
1447.707765,-0.438417,364393.000000,999970.000000
1450.906001,-0.436415,363044.000000,991687.000000
1454.099838,-0.433786,362635.000000,984590.000000
1457.289274,-0.430390,361653.000000,974277.000000
1461.535011,-0.425605,360303.000000,960004.000000
1464.714180,-0.423634,358064.000000,949717.000000
1467.888950,-0.419310,356949.000000,937380.000000
1471.059319,-0.415179,355912.000000,925809.000000
1474.225288,-0.411476,353737.000000,912340.000000
1477.386857,-0.407215,352477.000000,900215.000000
1480.544025,-0.405344,349693.000000,889264.000000
1484.746739,-0.401186,347943.000000,876384.000000
1487.893641,-0.401861,344781.000000,869769.000000
1491.036142,-0.400262,342531.000000,860918.000000
1494.174244,-0.400434,340170.000000,855323.000000
1497.307945,-0.399656,337701.000000,847595.000000
1500.437247,-0.400898,334446.000000,841829.000000
1503.562148,-0.401067,331876.000000,835685.000000
1507.721838,-0.401717,327918.000000,826955.000000
1510.836473,-0.402068,324967.000000,820176.000000
1513.946707,-0.403622,321718.000000,814887.000000
1517.052541,-0.403323,319073.000000,807631.000000
1520.153975,-0.404383,315575.000000,800729.000000
1523.251008,-0.404627,311252.000000,790204.000000
1527.373542,-0.403305,306492.000000,775755.000000
1530.460309,-0.403162,302471.000000,765324.000000
1533.542676,-0.402561,298873.000000,755176.000000
1536.620642,-0.401835,294593.000000,743117.000000
1539.694209,-0.402285,290524.000000,733613.000000
1542.763375,-0.404538,285805.000000,725450.000000
1545.828141,-0.405713,281854.000000,717360.000000
1549.907652,-0.410429,274841.000000,707149.000000
1552.962151,-0.412027,270515.000000,698583.000000
1556.012250,-0.414834,265203.000000,689307.000000
1559.057949,-0.416294,260042.000000,678169.000000
1562.099248,-0.416297,255973.000000,667561.000000
1565.136147,-0.416838,250523.000000,654162.000000
1568.168646,-0.417178,245616.000000,641852.000000
1572.205133,-0.418461,238774.000000,625818.000000
1575.227365,-0.419013,234179.000000,614555.000000
1578.245196,-0.420589,228934.000000,602975.000000
1581.258628,-0.422588,223478.000000,591320.000000
1584.267659,-0.424842,218239.000000,580463.000000
1587.272290,-0.424188,213357.000000,566624.000000
1591.271621,-0.427681,206678.000000,553319.000000
1594.265985,-0.432111,200655.000000,542702.000000
1597.255949,-0.433797,196105.000000,532458.000000
1600.241513,-0.436366,191413.000000,522802.000000
1603.222677,-0.440229,186271.000000,513303.000000
1606.199441,-0.444260,181567.000000,505007.000000
1609.171805,-0.448274,176656.000000,495909.000000
1613.128112,-0.452876,170106.000000,482609.000000
1616.090209,-0.459185,165195.000000,475534.000000
1619.047905,-0.462450,160661.000000,465973.000000
1622.001202,-0.470214,154762.000000,456960.000000
1624.950098,-0.476875,149284.000000,447598.000000
1627.894595,-0.480609,144304.000000,436403.000000
1630.834691,-0.489522,138573.000000,427760.000000
1634.747975,-0.497503,131373.000000,413056.000000
1637.677804,-0.504171,126061.000000,402487.000000
1640.603233,-0.511478,120043.000000,389776.000000
1643.524262,-0.520768,114222.000000,378894.000000
1646.440891,-0.525449,109595.000000,367485.000000
1649.353120,-0.532995,104146.000000,355335.000000
1653.229247,-0.521804,102337.000000,340280.000000
1656.131209,-0.516408,100118.000000,328791.000000
1659.028770,-0.522559,95076.000000,316687.000000
1661.921932,-0.509014,93881.000000,303104.000000
1664.810693,-0.505483,90392.000000,289476.000000
1667.695055,-0.504463,85969.000000,274666.000000
1670.575016,-0.498408,82225.000000,259067.000000
1674.408120,-0.475206,78925.000000,235733.000000
1677.277814,-inf,0.000000,213749.000000
1680.143108,-inf,0.000000,191259.000000
1683.004002,nan,-2147483648.000000,167993.000000
1685.860496,nan,-2147483648.000000,143756.000000
1688.712590,nan,-2147483648.000000,121282.000000
1691.560283,nan,-2147483648.000000,100669.000000
1695.350364,nan,-2147483648.000000,78879.000000
1698.187790,nan,-2147483648.000000,65504.000000
1701.020817,-inf,0.000000,53850.000000
