Method:,erol,,
Host Date-Time:,7/12/23 @ 14:21:15,,
Header Version:,1,,
System Temp (C):,40.45,,
Detector Temp (C):,27.54,,
Humidity (%):,16.26,,
Lamp PD:,3571,,
Shift Vector Coefficients:,-4.80707,0.053312,-0.000138677,,
Pixel to Wavelength Coefficients:,1763.6,-0.910608,-0.000244451,,
Serial Number:,6110061,,
Scan Config Name:,erol,,
Scan Config Type:,Slew,,
Section 1,,
Start wavelength (nm):,900,,
End wavelength (nm):,1700,,
Pattern Pixel Width (nm):,  11.71,,,,
Exposure (ms):,  0.635,,,,
Digital Resolution:,228,,
Num Repeats:,1,,
PGA Gain:,64,,
Total Measurement Time in sec:,  1.592,,
Wavelength (nm),Absorbance (AU),Reference Signal (unitless),Sample Signal (unitless)
901.370984,-0.769447,22318.000000,131251.000000
905.248306,-0.756660,26694.000000,152431.000000
909.121227,-0.746441,30240.000000,168664.000000
912.989749,-0.720244,35053.000000,184064.000000
918.140932,-0.714988,39668.000000,205792.000000
921.999187,-0.711034,44171.000000,227076.000000
925.853041,-0.702663,49463.000000,249427.000000
929.702495,-0.702262,55176.000000,277979.000000
933.547549,-0.697000,62603.000000,311598.000000
937.388203,-0.691481,70557.000000,346754.000000
941.224457,-0.684115,79215.000000,382756.000000
946.332618,-0.678100,90003.000000,428901.000000
950.158605,-0.674830,97001.000000,458782.000000
953.980191,-0.670062,104340.000000,488104.000000
957.797378,-0.666869,111157.000000,516186.000000
961.610165,-0.664018,117414.000000,541674.000000
965.418551,-0.660831,124361.000000,569528.000000
969.222537,-0.658065,131496.000000,598381.000000
974.287675,-0.654454,140925.000000,635978.000000
978.081394,-0.653022,148023.000000,665811.000000
981.870713,-0.651858,155197.000000,696211.000000
985.655632,-0.650606,162010.000000,724682.000000
989.436151,-0.647272,170019.000000,754692.000000
993.212270,-0.647033,176266.000000,781991.000000
998.240251,-0.643983,184964.000000,814836.000000
1002.006103,-0.642671,190519.000000,836777.000000
1005.767554,-0.640057,196102.000000,856129.000000
1009.524606,-0.639164,200098.000000,871779.000000
1013.277258,-0.637573,204164.000000,886242.000000
1017.025509,-0.637820,206631.000000,897461.000000
1020.769360,-0.636224,209246.000000,905485.000000
1025.754318,-0.633956,211932.000000,912332.000000
1029.487902,-0.632901,213316.000000,916062.000000
1033.217086,-0.632878,213821.000000,918181.000000
1036.941870,-0.632180,213615.000000,915823.000000
1040.662255,-0.631039,213930.000000,914767.000000
1044.378238,-0.629471,213905.000000,911364.000000
1048.089822,-0.629851,213173.000000,909041.000000
1053.031756,-0.629325,211884.000000,902449.000000
1056.733073,-0.627735,211098.000000,895816.000000
1060.429990,-0.627658,209880.000000,890491.000000
1064.122506,-0.626751,209078.000000,885236.000000
1067.810623,-0.626392,208224.000000,880892.000000
1071.494339,-0.627526,206922.000000,877673.000000
1076.399116,-0.625998,206676.000000,873551.000000
1080.072566,-0.626368,206200.000000,872281.000000
1083.741615,-0.626423,205636.000000,870005.000000
1087.406264,-0.625603,205874.000000,869370.000000
1091.066513,-0.625540,205797.000000,868919.000000
1094.722362,-0.626603,205514.000000,869850.000000
1098.373811,-0.626432,205628.000000,869990.000000
1103.235565,-0.624691,206788.000000,871397.000000
1106.876747,-0.624975,206389.000000,870286.000000
1110.513529,-0.624822,206615.000000,870931.000000
1114.145910,-0.624911,206738.000000,871628.000000
1117.773892,-0.626389,206547.000000,873791.000000
1121.397473,-0.625719,207088.000000,874729.000000
1125.016654,-0.626581,206464.000000,873827.000000
1129.835385,-0.625091,207418.000000,874858.000000
1133.444299,-0.625148,207695.000000,876141.000000
1137.048813,-0.622965,208493.000000,875097.000000
1140.648927,-0.623210,208223.000000,874457.000000
1144.244641,-0.622871,208337.000000,874253.000000
1147.835955,-0.621246,208774.000000,872816.000000
1152.617529,-0.621187,208238.000000,870456.000000
1156.198576,-0.620377,208484.000000,869861.000000
1159.775223,-0.618764,208962.000000,868623.000000
1163.347470,-0.617204,209317.000000,866979.000000
1166.915316,-0.615946,209935.000000,867023.000000
1170.478763,-0.612982,211435.000000,867279.000000
1174.037809,-0.609590,213105.000000,867329.000000
1178.776359,-0.607639,214394.000000,868663.000000
1182.325139,-0.600656,217962.000000,869034.000000
1185.869518,-0.597342,220075.000000,870788.000000
1189.409497,-0.593418,222694.000000,873225.000000
1192.945076,-0.591870,224594.000000,877543.000000
1196.476255,-0.589668,226828.000000,881789.000000
1200.003034,-0.586728,229675.000000,886833.000000
1204.698561,-0.586078,232729.000000,897281.000000
1208.215073,-0.584469,235830.000000,905875.000000
1211.727185,-0.583903,238631.000000,915440.000000
1215.234896,-0.582646,241974.000000,925581.000000
1218.738208,-0.581562,245450.000000,936538.000000
1222.237119,-0.580766,248996.000000,948327.000000
1226.895489,-0.580777,254001.000000,967414.000000
1230.384134,-0.580250,257796.000000,980677.000000
1233.868378,-0.581937,261030.000000,996844.000000
1237.348222,-0.582724,264910.000000,1013497.000000
1240.823666,-0.583412,269187.000000,1031492.000000
1244.294710,-0.582478,274535.000000,1049725.000000
1247.761354,-0.584344,278817.000000,1070689.000000
1252.376701,-0.584679,285943.000000,1098902.000000
1255.833078,-0.584064,292339.000000,1121892.000000
1259.285055,-0.584512,298387.000000,1146282.000000
1262.732632,-0.585351,303484.000000,1168118.000000
1266.175808,-0.585548,308643.000000,1188515.000000
1269.614584,-0.585620,313923.000000,1209046.000000
1273.048961,-0.585463,319097.000000,1228531.000000
1277.621284,-0.587705,324380.000000,1255332.000000
1281.045394,-0.586536,329793.000000,1272852.000000
1284.465103,-0.587579,333450.000000,1290060.000000
1287.880412,-0.588878,337104.000000,1308104.000000
1291.291321,-0.589832,340768.000000,1325228.000000
1294.697830,-0.589371,344605.000000,1338728.000000
1299.232997,-0.589832,349244.000000,1358192.000000
1302.629239,-0.589714,352441.000000,1370252.000000
1306.021081,-0.589762,355144.000000,1380915.000000
1309.408522,-0.589432,357732.000000,1389919.000000
1312.791564,-0.589217,360160.000000,1398660.000000
1316.170205,-0.589293,362173.000000,1406726.000000
1319.544447,-0.588513,364403.000000,1412848.000000
1324.036591,-0.588309,366317.000000,1419601.000000
1327.400565,-0.588764,366589.000000,1422144.000000
1330.760139,-0.586531,368623.000000,1422701.000000
1334.115313,-0.586758,368498.000000,1422960.000000
1337.466087,-0.584548,370046.000000,1421686.000000
1340.812461,-0.583046,370709.000000,1419316.000000
1344.154435,-0.580872,371502.000000,1415251.000000
1348.603555,-0.578028,371615.000000,1406440.000000
1351.935262,-0.575973,370997.000000,1397473.000000
1355.262569,-0.571677,371791.000000,1386680.000000
1358.585475,-0.568818,370879.000000,1374202.000000
1361.903982,-0.565720,370539.000000,1363182.000000
1365.218088,-0.561282,371657.000000,1353395.000000
1369.630052,-0.557233,372397.000000,1343506.000000
1372.933891,-0.554662,372524.000000,1336030.000000
1376.233331,-0.552585,372314.000000,1328905.000000
1379.528370,-0.551033,371243.000000,1320357.000000
1382.819009,-0.549980,369231.000000,1310021.000000
1386.105248,-0.548025,367705.000000,1298748.000000
1389.387087,-0.544949,367073.000000,1287363.000000
1393.756027,-0.540201,365715.000000,1268655.000000
1397.027599,-0.535222,365152.000000,1252263.000000
1400.294771,-0.529043,365097.000000,1234388.000000
1403.557542,-0.523640,364333.000000,1216575.000000
1406.815914,-0.514453,365413.000000,1194640.000000
1410.069885,-0.505641,365734.000000,1171673.000000
1413.319456,-0.496983,364947.000000,1146075.000000
1417.645373,-0.483037,365539.000000,1111657.000000
1420.884678,-0.473493,365230.000000,1086575.000000
1424.119582,-0.464189,365533.000000,1064427.000000
1427.350086,-0.456282,364906.000000,1043429.000000
1430.576190,-0.447864,365583.000000,1025297.000000
1433.797894,-0.441800,365648.000000,1011261.000000
1437.015198,-0.435911,365698.000000,997777.000000
1441.298091,-0.431295,364890.000000,985048.000000
1444.505128,-0.427126,364741.000000,975237.000000
1447.707765,-0.424273,364393.000000,967929.000000
1450.906001,-0.421762,363044.000000,958784.000000
1454.099838,-0.419182,362635.000000,952032.000000
1457.289274,-0.416300,361653.000000,943175.000000
1461.535011,-0.413281,360303.000000,933144.000000
1464.714180,-0.412359,358064.000000,925379.000000
1467.888950,-0.409143,356949.000000,915692.000000
1471.059319,-0.406598,355912.000000,907696.000000
1474.225288,-0.405086,353737.000000,899014.000000
1477.386857,-0.402782,352477.000000,891072.000000
1480.544025,-0.403776,349693.000000,886059.000000
1484.746739,-0.402994,347943.000000,880039.000000
1487.893641,-0.403471,344781.000000,873000.000000
1491.036142,-0.404703,342531.000000,869767.000000
1494.174244,-0.406221,340170.000000,866797.000000
1497.307945,-0.407312,337701.000000,862669.000000
1500.437247,-0.408934,334446.000000,857551.000000
1503.562148,-0.411530,331876.000000,856063.000000
1507.721838,-0.414729,327918.000000,852107.000000
1510.836473,-0.417117,324967.000000,849094.000000
1513.946707,-0.420481,321718.000000,847142.000000
1517.052541,-0.420649,319073.000000,840503.000000
1520.153975,-0.423257,315575.000000,836296.000000
1523.251008,-0.425778,311252.000000,829640.000000
1527.373542,-0.426742,306492.000000,818769.000000
1530.460309,-0.427390,302471.000000,809234.000000
1533.542676,-0.428512,298873.000000,801675.000000
1536.620642,-0.428371,294593.000000,789939.000000
1539.694209,-0.429205,290524.000000,780525.000000
1542.763375,-0.430770,285805.000000,770619.000000
1545.828141,-0.430141,281854.000000,758866.000000
1549.907652,-0.432294,274841.000000,743662.000000
1552.962151,-0.432406,270515.000000,732145.000000
1556.012250,-0.434504,265203.000000,721245.000000
1559.057949,-0.435015,260042.000000,708041.000000
1562.099248,-0.434694,255973.000000,696447.000000
1565.136147,-0.435768,250523.000000,683306.000000
1568.168646,-0.436645,245616.000000,671277.000000
1572.205133,-0.437786,238774.000000,654294.000000
1575.227365,-0.438801,234179.000000,643204.000000
1578.245196,-0.439485,228934.000000,629789.000000
1581.258628,-0.442313,223478.000000,618796.000000
1584.267659,-0.444675,218239.000000,607585.000000
1587.272290,-0.444580,213357.000000,593864.000000
1591.271621,-0.447340,206678.000000,578941.000000
1594.265985,-0.452066,200655.000000,568219.000000
1597.255949,-0.453998,196105.000000,557811.000000
1600.241513,-0.456037,191413.000000,547026.000000
1603.222677,-0.458964,186271.000000,535932.000000
1606.199441,-0.462593,181567.000000,526781.000000
1609.171805,-0.464070,176656.000000,514278.000000
1613.128112,-0.469306,170106.000000,501217.000000
1616.090209,-0.471410,165195.000000,489110.000000
1619.047905,-0.474850,160661.000000,479469.000000
1622.001202,-0.481135,154762.000000,468597.000000
1624.950098,-0.486135,149284.000000,457244.000000
1627.894595,-0.490350,144304.000000,446302.000000
1630.834691,-0.495960,138573.000000,434149.000000
1634.747975,-0.503506,131373.000000,418805.000000
1637.677804,-0.510653,126061.000000,408539.000000
1640.603233,-0.519270,120043.000000,396832.000000
1643.524262,-0.527114,114222.000000,384471.000000
1646.440891,-0.531625,109595.000000,372748.000000
1649.353120,-0.541270,104146.000000,362170.000000
1653.229247,-0.529615,102337.000000,346456.000000
1656.131209,-0.523724,100118.000000,334377.000000
1659.028770,-0.529456,95076.000000,321756.000000
1661.921932,-0.517579,93881.000000,309141.000000
1664.810693,-0.515654,90392.000000,296336.000000
1667.695055,-0.515332,85969.000000,281627.000000
1670.575016,-0.511914,82225.000000,267250.000000
1674.408120,-0.491050,78925.000000,244492.000000
1677.277814,-inf,0.000000,224242.000000
1680.143108,-inf,0.000000,202376.000000
1683.004002,nan,-2147483648.000000,179050.000000
1685.860496,nan,-2147483648.000000,155874.000000
1688.712590,nan,-2147483648.000000,133871.000000
1691.560283,nan,-2147483648.000000,111786.000000
1695.350364,nan,-2147483648.000000,89284.000000
1698.187790,nan,-2147483648.000000,73452.000000
1701.020817,-inf,0.000000,62262.000000
