Method:,erol,,
Host Date-Time:,7/12/23 @ 14:21:37,,
Header Version:,1,,
System Temp (C):,40.52,,
Detector Temp (C):,27.32,,
Humidity (%):,16.27,,
Lamp PD:,3583,,
Shift Vector Coefficients:,-4.80707,0.053312,-0.000138677,,
Pixel to Wavelength Coefficients:,1763.6,-0.910608,-0.000244451,,
Serial Number:,6110061,,
Scan Config Name:,erol,,
Scan Config Type:,Slew,,
Section 1,,
Start wavelength (nm):,900,,
End wavelength (nm):,1700,,
Pattern Pixel Width (nm):,  11.71,,,,
Exposure (ms):,  0.635,,,,
Digital Resolution:,228,,
Num Repeats:,1,,
PGA Gain:,64,,
Total Measurement Time in sec:,  1.592,,
Wavelength (nm),Absorbance (AU),Reference Signal (unitless),Sample Signal (unitless)
901.370984,-0.767368,22318.000000,130624.000000
905.248306,-0.758005,26694.000000,152904.000000
909.121227,-0.745360,30240.000000,168245.000000
912.989749,-0.723003,35053.000000,185237.000000
918.140932,-0.717211,39668.000000,206848.000000
921.999187,-0.709641,44171.000000,226349.000000
925.853041,-0.703053,49463.000000,249651.000000
929.702495,-0.704367,55176.000000,279330.000000
933.547549,-0.695991,62603.000000,310875.000000
937.388203,-0.692989,70557.000000,347960.000000
941.224457,-0.684981,79215.000000,383520.000000
946.332618,-0.677323,90003.000000,428134.000000
950.158605,-0.674978,97001.000000,458938.000000
953.980191,-0.669256,104340.000000,487200.000000
957.797378,-0.664659,111157.000000,513566.000000
961.610165,-0.663890,117414.000000,541514.000000
965.418551,-0.659954,124361.000000,568379.000000
969.222537,-0.657551,131496.000000,597673.000000
974.287675,-0.654110,140925.000000,635475.000000
978.081394,-0.652999,148023.000000,665776.000000
981.870713,-0.651474,155197.000000,695597.000000
985.655632,-0.650903,162010.000000,725178.000000
989.436151,-0.646423,170019.000000,753217.000000
993.212270,-0.647441,176266.000000,782725.000000
998.240251,-0.644052,184964.000000,814965.000000
1002.006103,-0.643277,190519.000000,837945.000000
1005.767554,-0.640553,196102.000000,857106.000000
1009.524606,-0.640188,200098.000000,873838.000000
1013.277258,-0.638245,204164.000000,887614.000000
1017.025509,-0.637891,206631.000000,897607.000000
1020.769360,-0.636553,209246.000000,906171.000000
1025.754318,-0.634690,211932.000000,913875.000000
1029.487902,-0.633965,213316.000000,918309.000000
1033.217086,-0.632594,213821.000000,917581.000000
1036.941870,-0.633296,213615.000000,918180.000000
1040.662255,-0.632220,213930.000000,917259.000000
1044.378238,-0.630723,213905.000000,913995.000000
1048.089822,-0.630186,213173.000000,909741.000000
1053.031756,-0.629832,211884.000000,903504.000000
1056.733073,-0.628851,211098.000000,898122.000000
1060.429990,-0.628913,209880.000000,893066.000000
1064.122506,-0.627693,209078.000000,887159.000000
1067.810623,-0.627553,208224.000000,883251.000000
1071.494339,-0.627913,206922.000000,878455.000000
1076.399116,-0.626798,206676.000000,875161.000000
1080.072566,-0.627124,206200.000000,873802.000000
1083.741615,-0.627450,205636.000000,872066.000000
1087.406264,-0.626294,205874.000000,870754.000000
1091.066513,-0.625316,205797.000000,868471.000000
1094.722362,-0.626649,205514.000000,869942.000000
1098.373811,-0.627533,205628.000000,872198.000000
1103.235565,-0.624685,206788.000000,871386.000000
1106.876747,-0.625459,206389.000000,871255.000000
1110.513529,-0.625078,206615.000000,871444.000000
1114.145910,-0.625259,206738.000000,872326.000000
1117.773892,-0.626518,206547.000000,874051.000000
1121.397473,-0.625181,207088.000000,873646.000000
1125.016654,-0.627159,206464.000000,874991.000000
1129.835385,-0.625205,207418.000000,875088.000000
1133.444299,-0.625177,207695.000000,876200.000000
1137.048813,-0.623186,208493.000000,875543.000000
1140.648927,-0.622936,208223.000000,873906.000000
1144.244641,-0.622721,208337.000000,873951.000000
1147.835955,-0.621200,208774.000000,872723.000000
1152.617529,-0.621208,208238.000000,870498.000000
1156.198576,-0.620717,208484.000000,870543.000000
1159.775223,-0.619054,208962.000000,869204.000000
1163.347470,-0.618214,209317.000000,868997.000000
1166.915316,-0.616760,209935.000000,868651.000000
1170.478763,-0.614025,211435.000000,869364.000000
1174.037809,-0.610479,213105.000000,869105.000000
1178.776359,-0.608553,214394.000000,870493.000000
1182.325139,-0.601687,217962.000000,871099.000000
1185.869518,-0.598354,220075.000000,872820.000000
1189.409497,-0.595152,222694.000000,876720.000000
1192.945076,-0.592838,224594.000000,879501.000000
1196.476255,-0.590788,226828.000000,884066.000000
1200.003034,-0.589178,229675.000000,891849.000000
1204.698561,-0.588438,232729.000000,902171.000000
1208.215073,-0.585964,235830.000000,908999.000000
1211.727185,-0.586207,238631.000000,920309.000000
1215.234896,-0.584988,241974.000000,930586.000000
1218.738208,-0.584193,245450.000000,942227.000000
1222.237119,-0.583498,248996.000000,954312.000000
1226.895489,-0.582480,254001.000000,971214.000000
1230.384134,-0.582290,257796.000000,985295.000000
1233.868378,-0.584340,261030.000000,1002375.000000
1237.348222,-0.584494,264910.000000,1017636.000000
1240.823666,-0.584944,269187.000000,1035138.000000
1244.294710,-0.584460,274535.000000,1054527.000000
1247.761354,-0.585686,278817.000000,1074003.000000
1252.376701,-0.586874,285943.000000,1104469.000000
1255.833078,-0.585644,292339.000000,1125979.000000
1259.285055,-0.585933,298387.000000,1150039.000000
1262.732632,-0.586481,303484.000000,1171162.000000
1266.175808,-0.586702,308643.000000,1191677.000000
1269.614584,-0.587169,313923.000000,1213368.000000
1273.048961,-0.587010,319097.000000,1232913.000000
1277.621284,-0.588969,324380.000000,1258992.000000
1281.045394,-0.587810,329793.000000,1276590.000000
1284.465103,-0.588932,333450.000000,1294084.000000
1287.880412,-0.590158,337104.000000,1311964.000000
1291.291321,-0.590481,340768.000000,1327212.000000
1294.697830,-0.590603,344605.000000,1342533.000000
1299.232997,-0.590820,349244.000000,1361284.000000
1302.629239,-0.590922,352441.000000,1374068.000000
1306.021081,-0.590484,355144.000000,1383210.000000
1309.408522,-0.590162,357732.000000,1392259.000000
1312.791564,-0.589825,360160.000000,1400619.000000
1316.170205,-0.590279,362173.000000,1409921.000000
1319.544447,-0.589487,364403.000000,1416017.000000
1324.036591,-0.589206,366317.000000,1422537.000000
1327.400565,-0.590064,366589.000000,1426408.000000
1330.760139,-0.587888,368623.000000,1427153.000000
1334.115313,-0.588310,368498.000000,1428057.000000
1337.466087,-0.586241,370046.000000,1427239.000000
1340.812461,-0.584963,370709.000000,1425596.000000
1344.154435,-0.582723,371502.000000,1421296.000000
1348.603555,-0.580399,371615.000000,1414140.000000
1351.935262,-0.578353,370997.000000,1405153.000000
1355.262569,-0.573943,371791.000000,1393934.000000
1358.585475,-0.571251,370879.000000,1381922.000000
1361.903982,-0.568723,370539.000000,1372642.000000
1365.218088,-0.564544,371657.000000,1363599.000000
1369.630052,-0.560597,372397.000000,1353953.000000
1372.933891,-0.557748,372524.000000,1345558.000000
1376.233331,-0.556047,372314.000000,1339543.000000
1379.528370,-0.553799,371243.000000,1328792.000000
1382.819009,-0.553959,369231.000000,1322078.000000
1386.105248,-0.552435,367705.000000,1312002.000000
1389.387087,-0.549207,367073.000000,1300048.000000
1393.756027,-0.544992,365715.000000,1282728.000000
1397.027599,-0.540881,365152.000000,1268689.000000
1400.294771,-0.536352,365097.000000,1255336.000000
1403.557542,-0.531214,364333.000000,1237976.000000
1406.815914,-0.522940,365413.000000,1218215.000000
1410.069885,-0.515280,365734.000000,1197968.000000
1413.319456,-0.508172,364947.000000,1175984.000000
1417.645373,-0.495816,365539.000000,1144853.000000
1420.884678,-0.487548,365230.000000,1122313.000000
1424.119582,-0.479274,365533.000000,1102049.000000
1427.350086,-0.473083,364906.000000,1084585.000000
1430.576190,-0.466047,365583.000000,1069137.000000
1433.797894,-0.460577,365648.000000,1055942.000000
1437.015198,-0.455376,365698.000000,1043515.000000
1441.298091,-0.450517,364890.000000,1029625.000000
1444.505128,-0.447874,364741.000000,1022960.000000
1447.707765,-0.445088,364393.000000,1015449.000000
1450.906001,-0.442430,363044.000000,1005516.000000
1454.099838,-0.439765,362635.000000,998239.000000
1457.289274,-0.437766,361653.000000,990965.000000
1461.535011,-0.434149,360303.000000,979077.000000
1464.714180,-0.432781,358064.000000,969932.000000
1467.888950,-0.429059,356949.000000,958661.000000
1471.059319,-0.425498,355912.000000,948071.000000
1474.225288,-0.424080,353737.000000,939206.000000
1477.386857,-0.421191,352477.000000,929654.000000
1480.544025,-0.421285,349693.000000,922511.000000
1484.746739,-0.418503,347943.000000,912034.000000
1487.893641,-0.420114,344781.000000,907105.000000
1491.036142,-0.420614,342531.000000,902223.000000
1494.174244,-0.420460,340170.000000,895687.000000
1497.307945,-0.421225,337701.000000,890753.000000
1500.437247,-0.423968,334446.000000,887757.000000
1503.562148,-0.426055,331876.000000,885178.000000
1507.721838,-0.427786,327918.000000,878114.000000
1510.836473,-0.429655,324967.000000,873965.000000
1513.946707,-0.432258,321718.000000,870430.000000
1517.052541,-0.432891,319073.000000,864532.000000
1520.153975,-0.434674,315575.000000,858571.000000
1523.251008,-0.436652,311252.000000,850675.000000
1527.373542,-0.437238,306492.000000,838797.000000
1530.460309,-0.438616,302471.000000,830423.000000
1533.542676,-0.438474,298873.000000,820278.000000
1536.620642,-0.438685,294593.000000,808923.000000
1539.694209,-0.438652,290524.000000,797689.000000
1542.763375,-0.439424,285805.000000,786129.000000
1545.828141,-0.439663,281854.000000,775688.000000
1549.907652,-0.441833,274841.000000,760176.000000
1552.962151,-0.441915,270515.000000,748352.000000
1556.012250,-0.443898,265203.000000,737015.000000
1559.057949,-0.445647,260042.000000,725588.000000
1562.099248,-0.445548,255973.000000,714072.000000
1565.136147,-0.446826,250523.000000,700929.000000
1568.168646,-0.448220,245616.000000,689409.000000
1572.205133,-0.448857,238774.000000,671188.000000
1575.227365,-0.449899,234179.000000,659853.000000
1578.245196,-0.450749,228934.000000,646338.000000
1581.258628,-0.452717,223478.000000,633799.000000
1584.267659,-0.454966,218239.000000,622155.000000
1587.272290,-0.454767,213357.000000,607959.000000
1591.271621,-0.457335,206678.000000,592419.000000
1594.265985,-0.462563,200655.000000,582120.000000
1597.255949,-0.464042,196105.000000,570861.000000
1600.241513,-0.466732,191413.000000,560665.000000
1603.222677,-0.470081,186271.000000,549827.000000
1606.199441,-0.473358,181567.000000,540001.000000
1609.171805,-0.476986,176656.000000,529803.000000
1613.128112,-0.480693,170106.000000,514532.000000
1616.090209,-0.483896,165195.000000,503377.000000
1619.047905,-0.486968,160661.000000,493036.000000
1622.001202,-0.492715,154762.000000,481259.000000
1624.950098,-0.499714,149284.000000,471767.000000
1627.894595,-0.502836,144304.000000,459319.000000
1630.834691,-0.509861,138573.000000,448270.000000
1634.747975,-0.516815,131373.000000,431838.000000
1637.677804,-0.523434,126061.000000,420741.000000
1640.603233,-0.530691,120043.000000,407406.000000
1643.524262,-0.539163,114222.000000,395287.000000
1646.440891,-0.544301,109595.000000,383788.000000
1649.353120,-0.552816,104146.000000,371928.000000
1653.229247,-0.541784,102337.000000,356301.000000
1656.131209,-0.534517,100118.000000,342791.000000
1659.028770,-0.541020,95076.000000,330439.000000
1661.921932,-0.529726,93881.000000,317910.000000
1664.810693,-0.526645,90392.000000,303931.000000
1667.695055,-0.528719,85969.000000,290443.000000
1670.575016,-0.524469,82225.000000,275089.000000
1674.408120,-0.501720,78925.000000,250573.000000
1677.277814,-inf,0.000000,231106.000000
1680.143108,-inf,0.000000,208322.000000
1683.004002,nan,-2147483648.000000,184287.000000
1685.860496,nan,-2147483648.000000,161285.000000
1688.712590,nan,-2147483648.000000,137388.000000
1691.560283,nan,-2147483648.000000,116462.000000
1695.350364,nan,-2147483648.000000,92242.000000
1698.187790,nan,-2147483648.000000,76791.000000
1701.020817,-inf,0.000000,65190.000000
