Method:,erol,,
Host Date-Time:,7/12/23 @ 14:22:56,,
Header Version:,1,,
System Temp (C):,40.77,,
Detector Temp (C):,26.88,,
Humidity (%):,16.18,,
Lamp PD:,3546,,
Shift Vector Coefficients:,-4.80707,0.053312,-0.000138677,,
Pixel to Wavelength Coefficients:,1763.6,-0.910608,-0.000244451,,
Serial Number:,6110061,,
Scan Config Name:,erol,,
Scan Config Type:,Slew,,
Section 1,,
Start wavelength (nm):,900,,
End wavelength (nm):,1700,,
Pattern Pixel Width (nm):,  11.71,,,,
Exposure (ms):,  0.635,,,,
Digital Resolution:,228,,
Num Repeats:,1,,
PGA Gain:,64,,
Total Measurement Time in sec:,  1.658,,
Wavelength (nm),Absorbance (AU),Reference Signal (unitless),Sample Signal (unitless)
901.370984,-0.738434,22318.000000,122205.000000
905.248306,-0.727834,26694.000000,142642.000000
909.121227,-0.720597,30240.000000,158920.000000
912.989749,-0.693529,35053.000000,173083.000000
918.140932,-0.688822,39668.000000,193759.000000
921.999187,-0.678657,44171.000000,210763.000000
925.853041,-0.671916,49463.000000,232379.000000
929.702495,-0.672670,55176.000000,259669.000000
933.547549,-0.668367,62603.000000,291717.000000
937.388203,-0.661812,70557.000000,323856.000000
941.224457,-0.655586,79215.000000,358421.000000
946.332618,-0.647813,90003.000000,400009.000000
950.158605,-0.645644,97001.000000,428963.000000
953.980191,-0.639526,104340.000000,454964.000000
957.797378,-0.635450,111157.000000,480161.000000
961.610165,-0.634116,117414.000000,505634.000000
965.418551,-0.631872,124361.000000,532790.000000
969.222537,-0.628780,131496.000000,559362.000000
974.287675,-0.625719,140925.000000,595261.000000
978.081394,-0.625206,148023.000000,624504.000000
981.870713,-0.623859,155197.000000,652743.000000
985.655632,-0.623002,162010.000000,680054.000000
989.436151,-0.619779,170019.000000,708397.000000
993.212270,-0.619317,176266.000000,733644.000000
998.240251,-0.617106,184964.000000,765937.000000
1002.006103,-0.615976,190519.000000,786891.000000
1005.767554,-0.613161,196102.000000,804716.000000
1009.524606,-0.612723,200098.000000,820286.000000
1013.277258,-0.610494,204164.000000,832670.000000
1017.025509,-0.610389,206631.000000,842529.000000
1020.769360,-0.609148,209246.000000,850756.000000
1025.754318,-0.606727,211932.000000,856886.000000
1029.487902,-0.605667,213316.000000,860381.000000
1033.217086,-0.604676,213821.000000,860451.000000
1036.941870,-0.605207,213615.000000,860674.000000
1040.662255,-0.603979,213930.000000,859510.000000
1044.378238,-0.602538,213905.000000,856562.000000
1048.089822,-0.601647,213173.000000,851882.000000
1053.031756,-0.601199,211884.000000,845857.000000
1056.733073,-0.600375,211098.000000,841122.000000
1060.429990,-0.599964,209880.000000,835478.000000
1064.122506,-0.598253,209078.000000,829013.000000
1067.810623,-0.598212,208224.000000,825549.000000
1071.494339,-0.599111,206922.000000,822086.000000
1076.399116,-0.597546,206676.000000,818155.000000
1080.072566,-0.597186,206200.000000,815595.000000
1083.741615,-0.597571,205636.000000,814086.000000
1087.406264,-0.596943,205874.000000,813851.000000
1091.066513,-0.595490,205797.000000,810828.000000
1094.722362,-0.597251,205514.000000,813003.000000
1098.373811,-0.596775,205628.000000,812563.000000
1103.235565,-0.594272,206788.000000,812452.000000
1106.876747,-0.595338,206389.000000,812876.000000
1110.513529,-0.594891,206615.000000,812930.000000
1114.145910,-0.595284,206738.000000,814149.000000
1117.773892,-0.595574,206547.000000,813941.000000
1121.397473,-0.594567,207088.000000,814182.000000
1125.016654,-0.596697,206464.000000,815721.000000
1129.835385,-0.593904,207418.000000,814237.000000
1133.444299,-0.593915,207695.000000,815345.000000
1137.048813,-0.592515,208493.000000,815842.000000
1140.648927,-0.591844,208223.000000,813529.000000
1144.244641,-0.591276,208337.000000,812910.000000
1147.835955,-0.590137,208774.000000,812481.000000
1152.617529,-0.591533,208238.000000,813005.000000
1156.198576,-0.589903,208484.000000,810916.000000
1159.775223,-0.588981,208962.000000,811051.000000
1163.347470,-0.587885,209317.000000,810382.000000
1166.915316,-0.587271,209935.000000,811626.000000
1170.478763,-0.584105,211435.000000,811488.000000
1174.037809,-0.581349,213105.000000,812724.000000
1178.776359,-0.579380,214394.000000,813941.000000
1182.325139,-0.572886,217962.000000,815205.000000
1185.869518,-0.569475,220075.000000,816669.000000
1189.409497,-0.566871,222694.000000,821447.000000
1192.945076,-0.564795,224594.000000,824504.000000
1196.476255,-0.563615,226828.000000,830447.000000
1200.003034,-0.560647,229675.000000,835143.000000
1204.698561,-0.560570,232729.000000,846097.000000
1208.215073,-0.559154,235830.000000,854580.000000
1211.727185,-0.558756,238631.000000,863938.000000
1215.234896,-0.557871,241974.000000,874258.000000
1218.738208,-0.556969,245450.000000,884978.000000
1222.237119,-0.556433,248996.000000,896656.000000
1226.895489,-0.555253,254001.000000,912196.000000
1230.384134,-0.555511,257796.000000,926375.000000
1233.868378,-0.556973,261030.000000,941160.000000
1237.348222,-0.556934,264910.000000,955063.000000
1240.823666,-0.557176,269187.000000,971024.000000
1244.294710,-0.556961,274535.000000,989826.000000
1247.761354,-0.558618,278817.000000,1009106.000000
1252.376701,-0.558859,285943.000000,1035472.000000
1255.833078,-0.557871,292339.000000,1056228.000000
1259.285055,-0.558203,298387.000000,1078905.000000
1262.732632,-0.559036,303484.000000,1099441.000000
1266.175808,-0.558354,308643.000000,1116376.000000
1269.614584,-0.559003,313923.000000,1137171.000000
1273.048961,-0.558708,319097.000000,1155129.000000
1277.621284,-0.560398,324380.000000,1178833.000000
1281.045394,-0.559090,329793.000000,1194899.000000
1284.465103,-0.560404,333450.000000,1211810.000000
1287.880412,-0.561212,337104.000000,1227371.000000
1291.291321,-0.561309,340768.000000,1240990.000000
1294.697830,-0.561527,344605.000000,1255592.000000
1299.232997,-0.561867,349244.000000,1273490.000000
1302.629239,-0.561728,352441.000000,1284739.000000
1306.021081,-0.561698,355144.000000,1294500.000000
1309.408522,-0.561076,357732.000000,1302068.000000
1312.791564,-0.560925,360160.000000,1310449.000000
1316.170205,-0.560791,362173.000000,1317368.000000
1319.544447,-0.561071,364403.000000,1326334.000000
1324.036591,-0.560561,366317.000000,1331736.000000
1327.400565,-0.561795,366589.000000,1336518.000000
1330.760139,-0.559350,368623.000000,1336387.000000
1334.115313,-0.559941,368498.000000,1337755.000000
1337.466087,-0.557996,370046.000000,1337371.000000
1340.812461,-0.557411,370709.000000,1337962.000000
1344.154435,-0.555639,371502.000000,1335367.000000
1348.603555,-0.553155,371615.000000,1328153.000000
1351.935262,-0.551793,370997.000000,1321793.000000
1355.262569,-0.548227,371791.000000,1313791.000000
1358.585475,-0.546044,370879.000000,1303995.000000
1361.903982,-0.543360,370539.000000,1294775.000000
1365.218088,-0.539797,371657.000000,1288070.000000
1369.630052,-0.536121,372397.000000,1279756.000000
1372.933891,-0.533877,372524.000000,1273596.000000
1376.233331,-0.532241,372314.000000,1268092.000000
1379.528370,-0.531126,371243.000000,1261200.000000
1382.819009,-0.530245,369231.000000,1251823.000000
1386.105248,-0.529196,367705.000000,1243642.000000
1389.387087,-0.526640,367073.000000,1234219.000000
1393.756027,-0.523161,365715.000000,1219842.000000
1397.027599,-0.519516,365152.000000,1207784.000000
1400.294771,-0.515396,365097.000000,1196201.000000
1403.557542,-0.510973,364333.000000,1181604.000000
1406.815914,-0.504159,365413.000000,1166657.000000
1410.069885,-0.496742,365734.000000,1147909.000000
1413.319456,-0.490325,364947.000000,1128638.000000
1417.645373,-0.478503,365539.000000,1100112.000000
1420.884678,-0.470781,365230.000000,1079810.000000
1424.119582,-0.462894,365533.000000,1061256.000000
1427.350086,-0.457008,364906.000000,1045176.000000
1430.576190,-0.450156,365583.000000,1030723.000000
1433.797894,-0.444626,365648.000000,1017862.000000
1437.015198,-0.439224,365698.000000,1005418.000000
1441.298091,-0.434978,364890.000000,993436.000000
1444.505128,-0.432099,364741.000000,986470.000000
1447.707765,-0.429211,364393.000000,978996.000000
1450.906001,-0.427218,363044.000000,970907.000000
1454.099838,-0.424425,362635.000000,963596.000000
1457.289274,-0.421408,361653.000000,954334.000000
1461.535011,-0.418297,360303.000000,943985.000000
1464.714180,-0.416369,358064.000000,933964.000000
1467.888950,-0.412971,356949.000000,923799.000000
1471.059319,-0.409207,355912.000000,913165.000000
1474.225288,-0.407613,353737.000000,904261.000000
1477.386857,-0.405318,352477.000000,896291.000000
1480.544025,-0.404603,349693.000000,887748.000000
1484.746739,-0.403082,347943.000000,880218.000000
1487.893641,-0.403452,344781.000000,872961.000000
1491.036142,-0.404414,342531.000000,869188.000000
1494.174244,-0.404612,340170.000000,863591.000000
1497.307945,-0.405525,337701.000000,859127.000000
1500.437247,-0.407799,334446.000000,855313.000000
1503.562148,-0.408987,331876.000000,851065.000000
1507.721838,-0.412170,327918.000000,847101.000000
1510.836473,-0.414237,324967.000000,843482.000000
1513.946707,-0.415742,321718.000000,837949.000000
1517.052541,-0.416513,319073.000000,832537.000000
1520.153975,-0.418951,315575.000000,828044.000000
1523.251008,-0.420620,311252.000000,819845.000000
1527.373542,-0.421210,306492.000000,808405.000000
1530.460309,-0.421995,302471.000000,799243.000000
1533.542676,-0.422160,298873.000000,790036.000000
1536.620642,-0.422354,294593.000000,779069.000000
1539.694209,-0.422690,290524.000000,768904.000000
1542.763375,-0.423567,285805.000000,757944.000000
1545.828141,-0.422807,281854.000000,746159.000000
1549.907652,-0.426141,274841.000000,733200.000000
1552.962151,-0.426479,270515.000000,722221.000000
1556.012250,-0.427239,265203.000000,709280.000000
1559.057949,-0.429050,260042.000000,698383.000000
1562.099248,-0.428733,255973.000000,686953.000000
1565.136147,-0.430477,250523.000000,675032.000000
1568.168646,-0.431035,245616.000000,662662.000000
1572.205133,-0.432190,238774.000000,645917.000000
1575.227365,-0.432472,234179.000000,633899.000000
1578.245196,-0.434670,228934.000000,622845.000000
1581.258628,-0.436146,223478.000000,610071.000000
1584.267659,-0.436707,218239.000000,596540.000000
1587.272290,-0.438894,213357.000000,586139.000000
1591.271621,-0.441256,206678.000000,570887.000000
1594.265985,-0.445054,200655.000000,559119.000000
1597.255949,-0.447594,196105.000000,549646.000000
1600.241513,-0.449542,191413.000000,538907.000000
1603.222677,-0.453080,186271.000000,528719.000000
1606.199441,-0.456641,181567.000000,519610.000000
1609.171805,-0.458200,176656.000000,507374.000000
1613.128112,-0.463446,170106.000000,494499.000000
1616.090209,-0.466916,165195.000000,484075.000000
1619.047905,-0.469187,160661.000000,473258.000000
1622.001202,-0.475440,154762.000000,462492.000000
1624.950098,-0.482126,149284.000000,453043.000000
1627.894595,-0.484105,144304.000000,439930.000000
1630.834691,-0.493241,138573.000000,431439.000000
1634.747975,-0.498236,131373.000000,413754.000000
1637.677804,-0.505762,126061.000000,403964.000000
1640.603233,-0.514017,120043.000000,392061.000000
1643.524262,-0.523136,114222.000000,380966.000000
1646.440891,-0.526570,109595.000000,368435.000000
1649.353120,-0.534759,104146.000000,356781.000000
1653.229247,-0.526109,102337.000000,343670.000000
1656.131209,-0.518959,100118.000000,330728.000000
1659.028770,-0.525883,95076.000000,319120.000000
1661.921932,-0.513768,93881.000000,306440.000000
1664.810693,-0.511903,90392.000000,293787.000000
1667.695055,-0.513447,85969.000000,280407.000000
1670.575016,-0.508656,82225.000000,265253.000000
1674.408120,-0.488086,78925.000000,242829.000000
1677.277814,-inf,0.000000,223650.000000
1680.143108,-inf,0.000000,202174.000000
1683.004002,nan,-2147483648.000000,181300.000000
1685.860496,nan,-2147483648.000000,156572.000000
1688.712590,nan,-2147483648.000000,134644.000000
1691.560283,nan,-2147483648.000000,112264.000000
1695.350364,nan,-2147483648.000000,89161.000000
1698.187790,nan,-2147483648.000000,74749.000000
1701.020817,-inf,0.000000,63398.000000
