Method:,erol,,
Host Date-Time:,7/12/23 @ 14:21:11,,
Header Version:,1,,
System Temp (C):,40.44,,
Detector Temp (C):,27.54,,
Humidity (%):,16.26,,
Lamp PD:,3559,,
Shift Vector Coefficients:,-4.80707,0.053312,-0.000138677,,
Pixel to Wavelength Coefficients:,1763.6,-0.910608,-0.000244451,,
Serial Number:,6110061,,
Scan Config Name:,erol,,
Scan Config Type:,Slew,,
Section 1,,
Start wavelength (nm):,900,,
End wavelength (nm):,1700,,
Pattern Pixel Width (nm):,  11.71,,,,
Exposure (ms):,  0.635,,,,
Digital Resolution:,228,,
Num Repeats:,1,,
PGA Gain:,64,,
Total Measurement Time in sec:,  1.657,,
Wavelength (nm),Absorbance (AU),Reference Signal (unitless),Sample Signal (unitless)
901.370984,-0.761470,22318.000000,128862.000000
905.248306,-0.748274,26694.000000,149516.000000
909.121227,-0.741463,30240.000000,166742.000000
912.989749,-0.711807,35053.000000,180523.000000
918.140932,-0.710323,39668.000000,203593.000000
921.999187,-0.700860,44171.000000,221818.000000
925.853041,-0.696506,49463.000000,245916.000000
929.702495,-0.697920,55176.000000,275214.000000
933.547549,-0.690468,62603.000000,306947.000000
937.388203,-0.686541,70557.000000,342832.000000
941.224457,-0.677288,79215.000000,376787.000000
946.332618,-0.670768,90003.000000,421721.000000
950.158605,-0.668768,97001.000000,452422.000000
953.980191,-0.663064,104340.000000,480302.000000
957.797378,-0.659302,111157.000000,507269.000000
961.610165,-0.658700,117414.000000,535081.000000
965.418551,-0.655825,124361.000000,563001.000000
969.222537,-0.652417,131496.000000,590649.000000
974.287675,-0.649721,140925.000000,629085.000000
978.081394,-0.647759,148023.000000,657791.000000
981.870713,-0.646836,155197.000000,688207.000000
985.655632,-0.646128,162010.000000,717249.000000
989.436151,-0.642394,170019.000000,746262.000000
993.212270,-0.642432,176266.000000,773749.000000
998.240251,-0.640137,184964.000000,807651.000000
1002.006103,-0.638651,190519.000000,829066.000000
1005.767554,-0.636689,196102.000000,849514.000000
1009.524606,-0.636526,200098.000000,866501.000000
1013.277258,-0.634307,204164.000000,879602.000000
1017.025509,-0.634536,206631.000000,890700.000000
1020.769360,-0.632698,209246.000000,898163.000000
1025.754318,-0.630318,211932.000000,904721.000000
1029.487902,-0.630169,213316.000000,910316.000000
1033.217086,-0.629247,213821.000000,910537.000000
1036.941870,-0.629167,213615.000000,909492.000000
1040.662255,-0.628197,213930.000000,908801.000000
1044.378238,-0.626710,213905.000000,905589.000000
1048.089822,-0.626338,213173.000000,901716.000000
1053.031756,-0.626264,211884.000000,896112.000000
1056.733073,-0.624816,211098.000000,889815.000000
1060.429990,-0.624059,209880.000000,883142.000000
1064.122506,-0.623776,209078.000000,879194.000000
1067.810623,-0.623099,208224.000000,874239.000000
1071.494339,-0.624131,206922.000000,870838.000000
1076.399116,-0.622716,206676.000000,866974.000000
1080.072566,-0.623121,206200.000000,865784.000000
1083.741615,-0.623438,205636.000000,864046.000000
1087.406264,-0.622129,205874.000000,862444.000000
1091.066513,-0.621532,205797.000000,860937.000000
1094.722362,-0.622745,205514.000000,862158.000000
1098.373811,-0.622824,205628.000000,862793.000000
1103.235565,-0.620491,206788.000000,863011.000000
1106.876747,-0.621929,206389.000000,864203.000000
1110.513529,-0.621039,206615.000000,863378.000000
1114.145910,-0.621188,206738.000000,864189.000000
1117.773892,-0.622215,206547.000000,865433.000000
1121.397473,-0.620963,207088.000000,865202.000000
1125.016654,-0.622832,206464.000000,866316.000000
1129.835385,-0.620599,207418.000000,865856.000000
1133.444299,-0.620248,207695.000000,866311.000000
1137.048813,-0.619222,208493.000000,867588.000000
1140.648927,-0.619436,208223.000000,866891.000000
1144.244641,-0.618343,208337.000000,865186.000000
1147.835955,-0.616531,208774.000000,863390.000000
1152.617529,-0.617106,208238.000000,862315.000000
1156.198576,-0.615772,208484.000000,860685.000000
1159.775223,-0.614491,208962.000000,860119.000000
1163.347470,-0.613309,209317.000000,859239.000000
1166.915316,-0.611603,209935.000000,858397.000000
1170.478763,-0.608993,211435.000000,859350.000000
1174.037809,-0.605814,213105.000000,859820.000000
1178.776359,-0.603875,214394.000000,861167.000000
1182.325139,-0.596404,217962.000000,860567.000000
1185.869518,-0.593290,220075.000000,862702.000000
1189.409497,-0.589258,222694.000000,864901.000000
1192.945076,-0.587494,224594.000000,868744.000000
1196.476255,-0.585364,226828.000000,873093.000000
1200.003034,-0.582873,229675.000000,878995.000000
1204.698561,-0.582516,232729.000000,889951.000000
1208.215073,-0.580222,235830.000000,897060.000000
1211.727185,-0.580007,238631.000000,907264.000000
1215.234896,-0.578734,241974.000000,917282.000000
1218.738208,-0.577904,245450.000000,928682.000000
1222.237119,-0.577203,248996.000000,940580.000000
1226.895489,-0.576782,254001.000000,958556.000000
1230.384134,-0.576890,257796.000000,973119.000000
1233.868378,-0.578142,261030.000000,988171.000000
1237.348222,-0.578687,264910.000000,1004120.000000
1240.823666,-0.579268,269187.000000,1021696.000000
1244.294710,-0.578661,274535.000000,1040541.000000
1247.761354,-0.580449,278817.000000,1061130.000000
1252.376701,-0.581366,285943.000000,1090549.000000
1255.833078,-0.581030,292339.000000,1114081.000000
1259.285055,-0.580923,298387.000000,1136850.000000
1262.732632,-0.581895,303484.000000,1158860.000000
1266.175808,-0.582381,308643.000000,1179878.000000
1269.614584,-0.581886,313923.000000,1198696.000000
1273.048961,-0.582181,319097.000000,1219280.000000
1277.621284,-0.584280,324380.000000,1245472.000000
1281.045394,-0.583266,329793.000000,1263304.000000
1284.465103,-0.584747,333450.000000,1281674.000000
1287.880412,-0.585318,337104.000000,1297425.000000
1291.291321,-0.586176,340768.000000,1314120.000000
1294.697830,-0.586250,344605.000000,1329142.000000
1299.232997,-0.586341,349244.000000,1347316.000000
1302.629239,-0.586427,352441.000000,1359920.000000
1306.021081,-0.586408,355144.000000,1370291.000000
1309.408522,-0.586141,357732.000000,1379428.000000
1312.791564,-0.585465,360160.000000,1386631.000000
1316.170205,-0.585843,362173.000000,1395594.000000
1319.544447,-0.585077,364403.000000,1401713.000000
1324.036591,-0.584910,366317.000000,1408533.000000
1327.400565,-0.585346,366589.000000,1410996.000000
1330.760139,-0.583630,368623.000000,1413228.000000
1334.115313,-0.583730,368498.000000,1413075.000000
1337.466087,-0.581609,370046.000000,1412098.000000
1340.812461,-0.580445,370709.000000,1410842.000000
1344.154435,-0.577887,371502.000000,1405557.000000
1348.603555,-0.575047,371615.000000,1396820.000000
1351.935262,-0.573113,370997.000000,1388299.000000
1355.262569,-0.568850,371791.000000,1377681.000000
1358.585475,-0.566351,370879.000000,1366416.000000
1361.903982,-0.563376,370539.000000,1355846.000000
1365.218088,-0.559354,371657.000000,1347398.000000
1369.630052,-0.555297,372397.000000,1337530.000000
1372.933891,-0.552299,372524.000000,1328782.000000
1376.233331,-0.550672,372314.000000,1323067.000000
1379.528370,-0.549106,371243.000000,1314511.000000
1382.819009,-0.547744,369231.000000,1303294.000000
1386.105248,-0.546056,367705.000000,1292873.000000
1389.387087,-0.542882,367073.000000,1281252.000000
1393.756027,-0.538570,365715.000000,1263901.000000
1397.027599,-0.533687,365152.000000,1247845.000000
1400.294771,-0.527858,365097.000000,1231023.000000
1403.557542,-0.522885,364333.000000,1214461.000000
1406.815914,-0.513617,365413.000000,1192343.000000
1410.069885,-0.505075,365734.000000,1170147.000000
1413.319456,-0.497006,364947.000000,1146136.000000
1417.645373,-0.482637,365539.000000,1110634.000000
1420.884678,-0.474123,365230.000000,1088152.000000
1424.119582,-0.464292,365533.000000,1064678.000000
1427.350086,-0.456398,364906.000000,1043707.000000
1430.576190,-0.448896,365583.000000,1027737.000000
1433.797894,-0.442204,365648.000000,1012202.000000
1437.015198,-0.436694,365698.000000,999577.000000
1441.298091,-0.431341,364890.000000,985152.000000
1444.505128,-0.427258,364741.000000,975534.000000
1447.707765,-0.424557,364393.000000,968562.000000
1450.906001,-0.422933,363044.000000,961373.000000
1454.099838,-0.419863,362635.000000,953526.000000
1457.289274,-0.416752,361653.000000,944157.000000
1461.535011,-0.413682,360303.000000,934006.000000
1464.714180,-0.412172,358064.000000,924980.000000
1467.888950,-0.409704,356949.000000,916876.000000
1471.059319,-0.406904,355912.000000,908337.000000
1474.225288,-0.405740,353737.000000,900369.000000
1477.386857,-0.403890,352477.000000,893349.000000
1480.544025,-0.404292,349693.000000,887113.000000
1484.746739,-0.403559,347943.000000,881185.000000
1487.893641,-0.405355,344781.000000,876796.000000
1491.036142,-0.405551,342531.000000,871466.000000
1494.174244,-0.406734,340170.000000,867820.000000
1497.307945,-0.407995,337701.000000,864028.000000
1500.437247,-0.410721,334446.000000,861087.000000
1503.562148,-0.412634,331876.000000,858242.000000
1507.721838,-0.416608,327918.000000,855801.000000
1510.836473,-0.418561,324967.000000,851922.000000
1513.946707,-0.421392,321718.000000,848921.000000
1517.052541,-0.422584,319073.000000,844255.000000
1520.153975,-0.423948,315575.000000,837626.000000
1523.251008,-0.427196,311252.000000,832354.000000
1527.373542,-0.428247,306492.000000,821611.000000
1530.460309,-0.429157,302471.000000,812532.000000
1533.542676,-0.429816,298873.000000,804086.000000
1536.620642,-0.431364,294593.000000,795402.000000
1539.694209,-0.430549,290524.000000,782944.000000
1542.763375,-0.431962,285805.000000,772737.000000
1545.828141,-0.432187,281854.000000,762449.000000
1549.907652,-0.434772,274841.000000,747918.000000
1552.962151,-0.435233,270515.000000,736927.000000
1556.012250,-0.436332,265203.000000,724286.000000
1559.057949,-0.436728,260042.000000,710840.000000
1562.099248,-0.436902,255973.000000,699997.000000
1565.136147,-0.439337,250523.000000,688945.000000
1568.168646,-0.438435,245616.000000,674050.000000
1572.205133,-0.440266,238774.000000,658041.000000
1575.227365,-0.440610,234179.000000,645889.000000
1578.245196,-0.442549,228934.000000,634249.000000
1581.258628,-0.445048,223478.000000,622705.000000
1584.267659,-0.445784,218239.000000,609139.000000
1587.272290,-0.447838,213357.000000,598335.000000
1591.271621,-0.450482,206678.000000,583144.000000
1594.265985,-0.453727,200655.000000,570397.000000
1597.255949,-0.454995,196105.000000,559093.000000
1600.241513,-0.458154,191413.000000,549699.000000
1603.222677,-0.461537,186271.000000,539116.000000
1606.199441,-0.463310,181567.000000,527651.000000
1609.171805,-0.467549,176656.000000,518415.000000
1613.128112,-0.471467,170106.000000,503717.000000
1616.090209,-0.475024,165195.000000,493198.000000
1619.047905,-0.477373,160661.000000,482262.000000
1622.001202,-0.483436,154762.000000,471086.000000
1624.950098,-0.487632,149284.000000,458823.000000
1627.894595,-0.492456,144304.000000,448471.000000
1630.834691,-0.499102,138573.000000,437301.000000
1634.747975,-0.506786,131373.000000,421980.000000
1637.677804,-0.511927,126061.000000,409739.000000
1640.603233,-0.521431,120043.000000,398812.000000
1643.524262,-0.530076,114222.000000,387102.000000
1646.440891,-0.534301,109595.000000,375052.000000
1649.353120,-0.542653,104146.000000,363325.000000
1653.229247,-0.531152,102337.000000,347684.000000
1656.131209,-0.527101,100118.000000,336987.000000
1659.028770,-0.534368,95076.000000,325416.000000
1661.921932,-0.519653,93881.000000,310621.000000
1664.810693,-0.516702,90392.000000,297052.000000
1667.695055,-0.519531,85969.000000,284363.000000
1670.575016,-0.513803,82225.000000,268415.000000
1674.408120,-0.495078,78925.000000,246770.000000
1677.277814,-inf,0.000000,225711.000000
1680.143108,-inf,0.000000,204894.000000
1683.004002,nan,-2147483648.000000,181879.000000
1685.860496,nan,-2147483648.000000,157348.000000
1688.712590,nan,-2147483648.000000,134517.000000
1691.560283,nan,-2147483648.000000,114102.000000
1695.350364,nan,-2147483648.000000,89506.000000
1698.187790,nan,-2147483648.000000,74655.000000
1701.020817,-inf,0.000000,63453.000000
