Method:,erol,,
Host Date-Time:,7/12/23 @ 14:23:12,,
Header Version:,1,,
System Temp (C):,40.86,,
Detector Temp (C):,26.91,,
Humidity (%):,16.08,,
Lamp PD:,3573,,
Shift Vector Coefficients:,-4.80707,0.053312,-0.000138677,,
Pixel to Wavelength Coefficients:,1763.6,-0.910608,-0.000244451,,
Serial Number:,6110061,,
Scan Config Name:,erol,,
Scan Config Type:,Slew,,
Section 1,,
Start wavelength (nm):,900,,
End wavelength (nm):,1700,,
Pattern Pixel Width (nm):,  11.71,,,,
Exposure (ms):,  0.635,,,,
Digital Resolution:,228,,
Num Repeats:,1,,
PGA Gain:,64,,
Total Measurement Time in sec:,  1.593,,
Wavelength (nm),Absorbance (AU),Reference Signal (unitless),Sample Signal (unitless)
901.370984,-0.766382,22318.000000,130328.000000
905.248306,-0.755207,26694.000000,151922.000000
909.121227,-0.744037,30240.000000,167733.000000
912.989749,-0.719559,35053.000000,183774.000000
918.140932,-0.713966,39668.000000,205308.000000
921.999187,-0.707065,44171.000000,225010.000000
925.853041,-0.702626,49463.000000,249406.000000
929.702495,-0.700537,55176.000000,276877.000000
933.547549,-0.693542,62603.000000,309127.000000
937.388203,-0.689688,70557.000000,345325.000000
941.224457,-0.682685,79215.000000,381498.000000
946.332618,-0.676061,90003.000000,426892.000000
950.158605,-0.673558,97001.000000,457440.000000
953.980191,-0.667536,104340.000000,485274.000000
957.797378,-0.664797,111157.000000,513729.000000
961.610165,-0.663605,117414.000000,541159.000000
965.418551,-0.659439,124361.000000,567706.000000
969.222537,-0.657255,131496.000000,597265.000000
974.287675,-0.653832,140925.000000,635068.000000
978.081394,-0.652868,148023.000000,665576.000000
981.870713,-0.650728,155197.000000,694403.000000
985.655632,-0.651265,162010.000000,725783.000000
989.436151,-0.646545,170019.000000,753430.000000
993.212270,-0.646546,176266.000000,781114.000000
998.240251,-0.643654,184964.000000,814219.000000
1002.006103,-0.642778,190519.000000,836982.000000
1005.767554,-0.640043,196102.000000,856101.000000
1009.524606,-0.639440,200098.000000,872333.000000
1013.277258,-0.637191,204164.000000,885462.000000
1017.025509,-0.637983,206631.000000,897797.000000
1020.769360,-0.635787,209246.000000,904574.000000
1025.754318,-0.633895,211932.000000,912204.000000
1029.487902,-0.632704,213316.000000,915646.000000
1033.217086,-0.632270,213821.000000,916896.000000
1036.941870,-0.632202,213615.000000,915870.000000
1040.662255,-0.631382,213930.000000,915490.000000
1044.378238,-0.629902,213905.000000,912268.000000
1048.089822,-0.628936,213173.000000,907128.000000
1053.031756,-0.628456,211884.000000,900647.000000
1056.733073,-0.627541,211098.000000,895416.000000
1060.429990,-0.627381,209880.000000,889922.000000
1064.122506,-0.626498,209078.000000,884722.000000
1067.810623,-0.625782,208224.000000,879656.000000
1071.494339,-0.626006,206922.000000,874607.000000
1076.399116,-0.625115,206676.000000,871776.000000
1080.072566,-0.625279,206200.000000,870096.000000
1083.741615,-0.625776,205636.000000,868711.000000
1087.406264,-0.624550,205874.000000,867264.000000
1091.066513,-0.624308,205797.000000,866458.000000
1094.722362,-0.625223,205514.000000,867090.000000
1098.373811,-0.625383,205628.000000,867892.000000
1103.235565,-0.623327,206788.000000,868665.000000
1106.876747,-0.624236,206389.000000,868806.000000
1110.513529,-0.623536,206615.000000,868357.000000
1114.145910,-0.624130,206738.000000,870063.000000
1117.773892,-0.624253,206547.000000,869505.000000
1121.397473,-0.624134,207088.000000,871544.000000
1125.016654,-0.625070,206464.000000,870791.000000
1129.835385,-0.623684,207418.000000,872029.000000
1133.444299,-0.623351,207695.000000,872523.000000
1137.048813,-0.621612,208493.000000,872376.000000
1140.648927,-0.621701,208223.000000,871425.000000
1144.244641,-0.621162,208337.000000,870820.000000
1147.835955,-0.619801,208774.000000,869916.000000
1152.617529,-0.620021,208238.000000,868122.000000
1156.198576,-0.618555,208484.000000,866220.000000
1159.775223,-0.617196,208962.000000,865493.000000
1163.347470,-0.616246,209317.000000,865069.000000
1166.915316,-0.614345,209935.000000,863833.000000
1170.478763,-0.611276,211435.000000,863878.000000
1174.037809,-0.608361,213105.000000,864877.000000
1178.776359,-0.606488,214394.000000,866364.000000
1182.325139,-0.598962,217962.000000,865651.000000
1185.869518,-0.596240,220075.000000,868582.000000
1189.409497,-0.593216,222694.000000,872819.000000
1192.945076,-0.590887,224594.000000,875559.000000
1196.476255,-0.588905,226828.000000,880241.000000
1200.003034,-0.586063,229675.000000,885475.000000
1204.698561,-0.585322,232729.000000,895721.000000
1208.215073,-0.583456,235830.000000,903764.000000
1211.727185,-0.583158,238631.000000,913871.000000
1215.234896,-0.582416,241974.000000,925092.000000
1218.738208,-0.581181,245450.000000,935716.000000
1222.237119,-0.580148,248996.000000,946979.000000
1226.895489,-0.579959,254001.000000,965594.000000
1230.384134,-0.579783,257796.000000,979623.000000
1233.868378,-0.581191,261030.000000,995134.000000
1237.348222,-0.581700,264910.000000,1011111.000000
1240.823666,-0.582505,269187.000000,1029341.000000
1244.294710,-0.581313,274535.000000,1046914.000000
1247.761354,-0.582955,278817.000000,1067270.000000
1252.376701,-0.584552,285943.000000,1098580.000000
1255.833078,-0.583522,292339.000000,1120491.000000
1259.285055,-0.583106,298387.000000,1142579.000000
1262.732632,-0.584434,303484.000000,1165654.000000
1266.175808,-0.584162,308643.000000,1184728.000000
1269.614584,-0.584097,313923.000000,1204814.000000
1273.048961,-0.583508,319097.000000,1223011.000000
1277.621284,-0.585823,324380.000000,1249904.000000
1281.045394,-0.584813,329793.000000,1267812.000000
1284.465103,-0.586490,333450.000000,1286828.000000
1287.880412,-0.586929,337104.000000,1302246.000000
1291.291321,-0.587913,340768.000000,1319386.000000
1294.697830,-0.587949,344605.000000,1334353.000000
1299.232997,-0.588368,349244.000000,1353622.000000
1302.629239,-0.588470,352441.000000,1366334.000000
1306.021081,-0.588315,355144.000000,1376321.000000
1309.408522,-0.587852,357732.000000,1384871.000000
1312.791564,-0.587655,360160.000000,1393641.000000
1316.170205,-0.587507,362173.000000,1400950.000000
1319.544447,-0.586998,364403.000000,1407926.000000
1324.036591,-0.586882,366317.000000,1414944.000000
1327.400565,-0.587898,366589.000000,1419312.000000
1330.760139,-0.585480,368623.000000,1419260.000000
1334.115313,-0.585418,368498.000000,1418579.000000
1337.466087,-0.583217,370046.000000,1417337.000000
1340.812461,-0.581962,370709.000000,1415778.000000
1344.154435,-0.579767,371502.000000,1411653.000000
1348.603555,-0.577216,371615.000000,1403812.000000
1351.935262,-0.575210,370997.000000,1395021.000000
1355.262569,-0.570373,371791.000000,1382520.000000
1358.585475,-0.568198,370879.000000,1372239.000000
1361.903982,-0.565255,370539.000000,1361724.000000
1365.218088,-0.560935,371657.000000,1352312.000000
1369.630052,-0.556792,372397.000000,1342141.000000
1372.933891,-0.554396,372524.000000,1335212.000000
1376.233331,-0.552176,372314.000000,1327656.000000
1379.528370,-0.550314,371243.000000,1318173.000000
1382.819009,-0.549708,369231.000000,1309201.000000
1386.105248,-0.548153,367705.000000,1299131.000000
1389.387087,-0.544809,367073.000000,1286950.000000
1393.756027,-0.541091,365715.000000,1271258.000000
1397.027599,-0.536762,365152.000000,1256713.000000
1400.294771,-0.530689,365097.000000,1239075.000000
1403.557542,-0.526072,364333.000000,1223405.000000
1406.815914,-0.517950,365413.000000,1204299.000000
1410.069885,-0.509739,365734.000000,1182780.000000
1413.319456,-0.501798,364947.000000,1158851.000000
1417.645373,-0.489056,365539.000000,1127172.000000
1420.884678,-0.480272,365230.000000,1103667.000000
1424.119582,-0.471667,365533.000000,1082913.000000
1427.350086,-0.464683,364906.000000,1063809.000000
1430.576190,-0.457689,365583.000000,1048758.000000
1433.797894,-0.451466,365648.000000,1034021.000000
1437.015198,-0.445607,365698.000000,1020305.000000
1441.298091,-0.440547,364890.000000,1006257.000000
1444.505128,-0.437463,364741.000000,998729.000000
1447.707765,-0.434300,364393.000000,990536.000000
1450.906001,-0.431748,363044.000000,981087.000000
1454.099838,-0.428777,362635.000000,973301.000000
1457.289274,-0.426726,361653.000000,966092.000000
1461.535011,-0.422671,360303.000000,953540.000000
1464.714180,-0.420720,358064.000000,943367.000000
1467.888950,-0.417389,356949.000000,933243.000000
1471.059319,-0.413512,355912.000000,922263.000000
1474.225288,-0.411823,353737.000000,913068.000000
1477.386857,-0.408971,352477.000000,903862.000000
1480.544025,-0.408920,349693.000000,896617.000000
1484.746739,-0.406022,347943.000000,886196.000000
1487.893641,-0.407427,344781.000000,880988.000000
1491.036142,-0.407373,342531.000000,875131.000000
1494.174244,-0.408253,340170.000000,870861.000000
1497.307945,-0.408714,337701.000000,865458.000000
1500.437247,-0.411206,334446.000000,862050.000000
1503.562148,-0.412567,331876.000000,858110.000000
1507.721838,-0.415844,327918.000000,854297.000000
1510.836473,-0.417753,324967.000000,850340.000000
1513.946707,-0.420341,321718.000000,846869.000000
1517.052541,-0.420655,319073.000000,840514.000000
1520.153975,-0.422880,315575.000000,835569.000000
1523.251008,-0.424326,311252.000000,826872.000000
1527.373542,-0.425696,306492.000000,816799.000000
1530.460309,-0.426252,302471.000000,807115.000000
1533.542676,-0.426185,298873.000000,797391.000000
1536.620642,-0.426646,294593.000000,786807.000000
1539.694209,-0.427447,290524.000000,777373.000000
1542.763375,-0.428527,285805.000000,766650.000000
1545.828141,-0.428446,281854.000000,755911.000000
1549.907652,-0.430381,274841.000000,740393.000000
1552.962151,-0.430658,270515.000000,729205.000000
1556.012250,-0.432940,265203.000000,718652.000000
1559.057949,-0.434579,260042.000000,707330.000000
1562.099248,-0.432829,255973.000000,693463.000000
1565.136147,-0.435311,250523.000000,682588.000000
1568.168646,-0.436402,245616.000000,670902.000000
1572.205133,-0.437575,238774.000000,653977.000000
1575.227365,-0.438743,234179.000000,643119.000000
1578.245196,-0.439705,228934.000000,630109.000000
1581.258628,-0.441126,223478.000000,617108.000000
1584.267659,-0.443563,218239.000000,606032.000000
1587.272290,-0.443743,213357.000000,592720.000000
1591.271621,-0.446723,206678.000000,578119.000000
1594.265985,-0.451409,200655.000000,567360.000000
1597.255949,-0.453813,196105.000000,557573.000000
1600.241513,-0.456024,191413.000000,547010.000000
1603.222677,-0.460062,186271.000000,537288.000000
1606.199441,-0.463293,181567.000000,527631.000000
1609.171805,-0.466815,176656.000000,517539.000000
1613.128112,-0.472035,170106.000000,504376.000000
1616.090209,-0.475337,165195.000000,493553.000000
1619.047905,-0.478048,160661.000000,483013.000000
1622.001202,-0.484342,154762.000000,472070.000000
1624.950098,-0.489575,149284.000000,460880.000000
1627.894595,-0.495115,144304.000000,451225.000000
1630.834691,-0.500974,138573.000000,439190.000000
1634.747975,-0.508211,131373.000000,423367.000000
1637.677804,-0.514751,126061.000000,412412.000000
1640.603233,-0.523327,120043.000000,400557.000000
1643.524262,-0.532874,114222.000000,389604.000000
1646.440891,-0.536506,109595.000000,376961.000000
1649.353120,-0.545749,104146.000000,365925.000000
1653.229247,-0.535021,102337.000000,350795.000000
1656.131209,-0.529681,100118.000000,338995.000000
1659.028770,-0.534188,95076.000000,325281.000000
1661.921932,-0.523884,93881.000000,313662.000000
1664.810693,-0.521632,90392.000000,300443.000000
1667.695055,-0.521229,85969.000000,285477.000000
1670.575016,-0.517820,82225.000000,270909.000000
1674.408120,-0.496110,78925.000000,247357.000000
1677.277814,-inf,0.000000,226377.000000
1680.143108,-inf,0.000000,205257.000000
1683.004002,nan,-2147483648.000000,181585.000000
1685.860496,nan,-2147483648.000000,158442.000000
1688.712590,nan,-2147483648.000000,134946.000000
1691.560283,nan,-2147483648.000000,114589.000000
1695.350364,nan,-2147483648.000000,91254.000000
1698.187790,nan,-2147483648.000000,76173.000000
1701.020817,-inf,0.000000,63371.000000
