Method:,erol,,
Host Date-Time:,7/12/23 @ 14:22:34,,
Header Version:,1,,
System Temp (C):,40.73,,
Detector Temp (C):,26.61,,
Humidity (%):,16.17,,
Lamp PD:,3571,,
Shift Vector Coefficients:,-4.80707,0.053312,-0.000138677,,
Pixel to Wavelength Coefficients:,1763.6,-0.910608,-0.000244451,,
Serial Number:,6110061,,
Scan Config Name:,erol,,
Scan Config Type:,Slew,,
Section 1,,
Start wavelength (nm):,900,,
End wavelength (nm):,1700,,
Pattern Pixel Width (nm):,  11.71,,,,
Exposure (ms):,  0.635,,,,
Digital Resolution:,228,,
Num Repeats:,1,,
PGA Gain:,64,,
Total Measurement Time in sec:,  1.592,,
Wavelength (nm),Absorbance (AU),Reference Signal (unitless),Sample Signal (unitless)
901.370984,-0.710116,22318.000000,114491.000000
905.248306,-0.700843,26694.000000,134047.000000
909.121227,-0.690876,30240.000000,148408.000000
912.989749,-0.666451,35053.000000,162621.000000
918.140932,-0.656226,39668.000000,179749.000000
921.999187,-0.650217,44171.000000,197403.000000
925.853041,-0.645523,49463.000000,218677.000000
929.702495,-0.647130,55176.000000,244839.000000
933.547549,-0.640872,62603.000000,273821.000000
937.388203,-0.635553,70557.000000,304855.000000
941.224457,-0.627770,79215.000000,336184.000000
946.332618,-0.621500,90003.000000,376493.000000
950.158605,-0.618794,97001.000000,403246.000000
953.980191,-0.613410,104340.000000,428411.000000
957.797378,-0.609868,111157.000000,452694.000000
961.610165,-0.610156,117414.000000,478493.000000
965.418551,-0.608026,124361.000000,504325.000000
969.222537,-0.604105,131496.000000,528466.000000
974.287675,-0.603229,140925.000000,565219.000000
978.081394,-0.603275,148023.000000,593751.000000
981.870713,-0.601433,155197.000000,619892.000000
985.655632,-0.602842,162010.000000,649208.000000
989.436151,-0.600048,170019.000000,676932.000000
993.212270,-0.600705,176266.000000,702868.000000
998.240251,-0.598862,184964.000000,734428.000000
1002.006103,-0.598132,190519.000000,755214.000000
1005.767554,-0.595809,196102.000000,773198.000000
1009.524606,-0.596102,200098.000000,789487.000000
1013.277258,-0.593730,204164.000000,801141.000000
1017.025509,-0.594702,206631.000000,812639.000000
1020.769360,-0.593905,209246.000000,821414.000000
1025.754318,-0.591927,211932.000000,828178.000000
1029.487902,-0.590630,213316.000000,831101.000000
1033.217086,-0.590387,213821.000000,832602.000000
1036.941870,-0.590808,213615.000000,832607.000000
1040.662255,-0.590212,213930.000000,832691.000000
1044.378238,-0.588756,213905.000000,829807.000000
1048.089822,-0.588457,213173.000000,826398.000000
1053.031756,-0.587794,211884.000000,820147.000000
1056.733073,-0.586874,211098.000000,815377.000000
1060.429990,-0.586174,209880.000000,809367.000000
1064.122506,-0.585770,209078.000000,805523.000000
1067.810623,-0.585160,208224.000000,801108.000000
1071.494339,-0.586679,206922.000000,798887.000000
1076.399116,-0.584917,206676.000000,794707.000000
1080.072566,-0.585998,206200.000000,794853.000000
1083.741615,-0.585490,205636.000000,791752.000000
1087.406264,-0.584515,205874.000000,790891.000000
1091.066513,-0.583629,205797.000000,788984.000000
1094.722362,-0.584711,205514.000000,789865.000000
1098.373811,-0.584847,205628.000000,790549.000000
1103.235565,-0.582471,206788.000000,790672.000000
1106.876747,-0.582917,206389.000000,789958.000000
1110.513529,-0.582678,206615.000000,790387.000000
1114.145910,-0.582406,206738.000000,790362.000000
1117.773892,-0.583184,206547.000000,791048.000000
1121.397473,-0.581829,207088.000000,790649.000000
1125.016654,-0.583326,206464.000000,790988.000000
1129.835385,-0.581250,207418.000000,790854.000000
1133.444299,-0.580331,207695.000000,790237.000000
1137.048813,-0.578746,208493.000000,790382.000000
1140.648927,-0.578725,208223.000000,789321.000000
1144.244641,-0.577969,208337.000000,788379.000000
1147.835955,-0.576420,208774.000000,787221.000000
1152.617529,-0.576545,208238.000000,785426.000000
1156.198576,-0.574590,208484.000000,782821.000000
1159.775223,-0.573691,208962.000000,782994.000000
1163.347470,-0.571653,209317.000000,780652.000000
1166.915316,-0.570441,209935.000000,780775.000000
1170.478763,-0.566940,211435.000000,780040.000000
1174.037809,-0.564335,213105.000000,781499.000000
1178.776359,-0.562230,214394.000000,782424.000000
1182.325139,-0.555418,217962.000000,783067.000000
1185.869518,-0.551837,220075.000000,784165.000000
1189.409497,-0.548171,222694.000000,786828.000000
1192.945076,-0.546276,224594.000000,790085.000000
1196.476255,-0.543994,226828.000000,793762.000000
1200.003034,-0.542131,229675.000000,800286.000000
1204.698561,-0.541051,232729.000000,808913.000000
1208.215073,-0.539510,235830.000000,816787.000000
1211.727185,-0.539176,238631.000000,825853.000000
1215.234896,-0.537330,241974.000000,833871.000000
1218.738208,-0.536636,245450.000000,844499.000000
1222.237119,-0.536455,248996.000000,856343.000000
1226.895489,-0.536608,254001.000000,873864.000000
1230.384134,-0.536824,257796.000000,887360.000000
1233.868378,-0.538482,261030.000000,901930.000000
1237.348222,-0.538737,264910.000000,915874.000000
1240.823666,-0.540051,269187.000000,933480.000000
1244.294710,-0.539620,274535.000000,951081.000000
1247.761354,-0.541057,278817.000000,969116.000000
1252.376701,-0.542539,285943.000000,997284.000000
1255.833078,-0.541780,292339.000000,1017811.000000
1259.285055,-0.542461,298387.000000,1040497.000000
1262.732632,-0.544129,303484.000000,1062343.000000
1266.175808,-0.544654,308643.000000,1081709.000000
1269.614584,-0.544738,313923.000000,1100426.000000
1273.048961,-0.544703,319097.000000,1118473.000000
1277.621284,-0.547073,324380.000000,1143214.000000
1281.045394,-0.546325,329793.000000,1160289.000000
1284.465103,-0.547624,333450.000000,1176670.000000
1287.880412,-0.548560,337104.000000,1192132.000000
1291.291321,-0.548809,340768.000000,1205780.000000
1294.697830,-0.548774,344605.000000,1219258.000000
1299.232997,-0.549523,349244.000000,1237805.000000
1302.629239,-0.549963,352441.000000,1250401.000000
1306.021081,-0.549278,355144.000000,1258006.000000
1309.408522,-0.549127,357732.000000,1266732.000000
1312.791564,-0.549288,360160.000000,1275804.000000
1316.170205,-0.548771,362173.000000,1281407.000000
1319.544447,-0.548440,364403.000000,1288315.000000
1324.036591,-0.548427,366317.000000,1295044.000000
1327.400565,-0.548974,366589.000000,1297639.000000
1330.760139,-0.546881,368623.000000,1298564.000000
1334.115313,-0.547091,368498.000000,1298751.000000
1337.466087,-0.545211,370046.000000,1298575.000000
1340.812461,-0.544169,370709.000000,1297784.000000
1344.154435,-0.541894,371502.000000,1293764.000000
1348.603555,-0.539152,371615.000000,1286012.000000
1351.935262,-0.537391,370997.000000,1278679.000000
1355.262569,-0.533600,371791.000000,1270279.000000
1358.585475,-0.530982,370879.000000,1259546.000000
1361.903982,-0.528346,370539.000000,1250777.000000
1365.218088,-0.523843,371657.000000,1241611.000000
1369.630052,-0.519715,372397.000000,1232314.000000
1372.933891,-0.517763,372524.000000,1227206.000000
1376.233331,-0.515155,372314.000000,1219170.000000
1379.528370,-0.514172,371243.000000,1212914.000000
1382.819009,-0.513369,369231.000000,1204113.000000
1386.105248,-0.512074,367705.000000,1195566.000000
1389.387087,-0.508994,367073.000000,1185078.000000
1393.756027,-0.505141,365715.000000,1170263.000000
1397.027599,-0.500740,365152.000000,1156681.000000
1400.294771,-0.495652,365097.000000,1143036.000000
1403.557542,-0.490450,364333.000000,1127065.000000
1406.815914,-0.481962,365413.000000,1108527.000000
1410.069885,-0.474275,365734.000000,1090035.000000
1413.319456,-0.466740,364947.000000,1068980.000000
1417.645373,-0.453505,365539.000000,1038577.000000
1420.884678,-0.444314,365230.000000,1015970.000000
1424.119582,-0.435712,365533.000000,996871.000000
1427.350086,-0.429162,364906.000000,980264.000000
1430.576190,-0.421313,365583.000000,964493.000000
1433.797894,-0.414975,365648.000000,950688.000000
1437.015198,-0.409766,365698.000000,939483.000000
1441.298091,-0.404525,364890.000000,926163.000000
1444.505128,-0.401069,364741.000000,918445.000000
1447.707765,-0.398050,364393.000000,911213.000000
1450.906001,-0.396375,363044.000000,904346.000000
1454.099838,-0.393612,362635.000000,897597.000000
1457.289274,-0.391116,361653.000000,890038.000000
1461.535011,-0.387161,360303.000000,878677.000000
1464.714180,-0.386496,358064.000000,871880.000000
1467.888950,-0.382147,356949.000000,860505.000000
1471.059319,-0.379521,355912.000000,852832.000000
1474.225288,-0.378226,353737.000000,845096.000000
1477.386857,-0.376449,352477.000000,838648.000000
1480.544025,-0.376339,349693.000000,831814.000000
1484.746739,-0.375163,347943.000000,825413.000000
1487.893641,-0.376803,344781.000000,821006.000000
1491.036142,-0.376534,342531.000000,815143.000000
1494.174244,-0.377655,340170.000000,811616.000000
1497.307945,-0.378567,337701.000000,807420.000000
1500.437247,-0.381580,334446.000000,805204.000000
1503.562148,-0.384107,331876.000000,803679.000000
1507.721838,-0.386568,327918.000000,798607.000000
1510.836473,-0.388658,324967.000000,795238.000000
1513.946707,-0.391115,321718.000000,791755.000000
1517.052541,-0.392484,319073.000000,787724.000000
1520.153975,-0.393870,315575.000000,781578.000000
1523.251008,-0.396163,311252.000000,774952.000000
1527.373542,-0.397770,306492.000000,765930.000000
1530.460309,-0.398213,302471.000000,756653.000000
1533.542676,-0.398505,298873.000000,748155.000000
1536.620642,-0.398616,294593.000000,737630.000000
1539.694209,-0.399817,290524.000000,729456.000000
1542.763375,-0.400989,285805.000000,719547.000000
1545.828141,-0.400794,281854.000000,709281.000000
1549.907652,-0.402808,274841.000000,694848.000000
1552.962151,-0.403612,270515.000000,685178.000000
1556.012250,-0.404420,265203.000000,672974.000000
1559.057949,-0.406448,260042.000000,662967.000000
1562.099248,-0.404991,255973.000000,650407.000000
1565.136147,-0.406539,250523.000000,638832.000000
1568.168646,-0.407025,245616.000000,627021.000000
1572.205133,-0.408844,238774.000000,612112.000000
1575.227365,-0.408740,234179.000000,600189.000000
1578.245196,-0.410307,228934.000000,588867.000000
1581.258628,-0.412953,223478.000000,578346.000000
1584.267659,-0.414645,218239.000000,566992.000000
1587.272290,-0.415657,213357.000000,555602.000000
1591.271621,-0.419412,206678.000000,542883.000000
1594.265985,-0.422914,200655.000000,531330.000000
1597.255949,-0.425586,196105.000000,522486.000000
1600.241513,-0.427950,191413.000000,512769.000000
1603.222677,-0.431544,186271.000000,503140.000000
1606.199441,-0.434730,181567.000000,494046.000000
1609.171805,-0.437843,176656.000000,484140.000000
1613.128112,-0.442683,170106.000000,471414.000000
1616.090209,-0.447619,165195.000000,463037.000000
1619.047905,-0.449320,160661.000000,452096.000000
1622.001202,-0.455486,154762.000000,441723.000000
1624.950098,-0.461425,149284.000000,431955.000000
1627.894595,-0.465375,144304.000000,421360.000000
1630.834691,-0.472325,138573.000000,411153.000000
1634.747975,-0.480048,131373.000000,396784.000000
1637.677804,-0.487508,126061.000000,387337.000000
1640.603233,-0.496535,120043.000000,376593.000000
1643.524262,-0.506015,114222.000000,366239.000000
1646.440891,-0.509919,109595.000000,354576.000000
1649.353120,-0.519476,104146.000000,344444.000000
1653.229247,-0.508857,102337.000000,330286.000000
1656.131209,-0.502245,100118.000000,318242.000000
1659.028770,-0.509608,95076.000000,307382.000000
1661.921932,-0.498360,93881.000000,295759.000000
1664.810693,-0.496892,90392.000000,283806.000000
1667.695055,-0.497764,85969.000000,270462.000000
1670.575016,-0.495117,82225.000000,257111.000000
1674.408120,-0.474005,78925.000000,235082.000000
1677.277814,-inf,0.000000,215278.000000
1680.143108,-inf,0.000000,195116.000000
1683.004002,nan,-2147483648.000000,172495.000000
1685.860496,nan,-2147483648.000000,150250.000000
1688.712590,nan,-2147483648.000000,128525.000000
1691.560283,nan,-2147483648.000000,108766.000000
1695.350364,nan,-2147483648.000000,86096.000000
1698.187790,nan,-2147483648.000000,72261.000000
1701.020817,-inf,0.000000,60733.000000
