Method:,erol,,
Host Date-Time:,7/12/23 @ 14:23:5,,
Header Version:,1,,
System Temp (C):,40.84,,
Detector Temp (C):,26.96,,
Humidity (%):,16.08,,
Lamp PD:,3577,,
Shift Vector Coefficients:,-4.80707,0.053312,-0.000138677,,
Pixel to Wavelength Coefficients:,1763.6,-0.910608,-0.000244451,,
Serial Number:,6110061,,
Scan Config Name:,erol,,
Scan Config Type:,Slew,,
Section 1,,
Start wavelength (nm):,900,,
End wavelength (nm):,1700,,
Pattern Pixel Width (nm):,  11.71,,,,
Exposure (ms):,  0.635,,,,
Digital Resolution:,228,,
Num Repeats:,1,,
PGA Gain:,64,,
Total Measurement Time in sec:,  1.660,,
Wavelength (nm),Absorbance (AU),Reference Signal (unitless),Sample Signal (unitless)
901.370984,-0.683585,22318.000000,107706.000000
905.248306,-0.673212,26694.000000,125784.000000
909.121227,-0.666036,30240.000000,140158.000000
912.989749,-0.636226,35053.000000,151688.000000
918.140932,-0.632057,39668.000000,170019.000000
921.999187,-0.624567,44171.000000,186082.000000
925.853041,-0.621797,49463.000000,207051.000000
929.702495,-0.618481,55176.000000,229209.000000
933.547549,-0.614273,62603.000000,257554.000000
937.388203,-0.609535,70557.000000,287128.000000
941.224457,-0.600525,79215.000000,315742.000000
946.332618,-0.593680,90003.000000,353132.000000
950.158605,-0.591518,97001.000000,378699.000000
953.980191,-0.585213,104340.000000,401480.000000
957.797378,-0.582674,111157.000000,425217.000000
961.610165,-0.582252,117414.000000,448716.000000
965.418551,-0.578534,124361.000000,471214.000000
969.222537,-0.575259,131496.000000,494506.000000
974.287675,-0.572041,140925.000000,526053.000000
978.081394,-0.571246,148023.000000,551538.000000
981.870713,-0.569477,155197.000000,575917.000000
985.655632,-0.568816,162010.000000,600285.000000
989.436151,-0.565194,170019.000000,624729.000000
993.212270,-0.564895,176266.000000,647237.000000
998.240251,-0.562503,184964.000000,675446.000000
1002.006103,-0.561068,190519.000000,693436.000000
1005.767554,-0.558244,196102.000000,709131.000000
1009.524606,-0.558044,200098.000000,723247.000000
1013.277258,-0.554871,204164.000000,732572.000000
1017.025509,-0.555527,206631.000000,742545.000000
1020.769360,-0.554232,209246.000000,749703.000000
1025.754318,-0.551779,211932.000000,755050.000000
1029.487902,-0.550403,213316.000000,757576.000000
1033.217086,-0.549232,213821.000000,757325.000000
1036.941870,-0.550166,213615.000000,758225.000000
1040.662255,-0.548629,213930.000000,756659.000000
1044.378238,-0.547934,213905.000000,755362.000000
1048.089822,-0.546318,213173.000000,749981.000000
1053.031756,-0.545610,211884.000000,744231.000000
1056.733073,-0.544506,211098.000000,739589.000000
1060.429990,-0.544432,209880.000000,735196.000000
1064.122506,-0.543759,209078.000000,731253.000000
1067.810623,-0.542947,208224.000000,726906.000000
1071.494339,-0.544087,206922.000000,724258.000000
1076.399116,-0.542749,206676.000000,721172.000000
1080.072566,-0.542761,206200.000000,719532.000000
1083.741615,-0.542725,205636.000000,717504.000000
1087.406264,-0.542102,205874.000000,717304.000000
1091.066513,-0.541878,205797.000000,716666.000000
1094.722362,-0.543412,205514.000000,718214.000000
1098.373811,-0.543360,205628.000000,718525.000000
1103.235565,-0.541183,206788.000000,718966.000000
1106.876747,-0.542114,206389.000000,719118.000000
1110.513529,-0.541994,206615.000000,719708.000000
1114.145910,-0.542076,206738.000000,720271.000000
1117.773892,-0.542058,206547.000000,719576.000000
1121.397473,-0.541989,207088.000000,721347.000000
1125.016654,-0.543079,206464.000000,720981.000000
1129.835385,-0.541944,207418.000000,722421.000000
1133.444299,-0.541424,207695.000000,722520.000000
1137.048813,-0.540025,208493.000000,722963.000000
1140.648927,-0.539994,208223.000000,721976.000000
1144.244641,-0.540363,208337.000000,722986.000000
1147.835955,-0.540081,208774.000000,724032.000000
1152.617529,-0.540093,208238.000000,722193.000000
1156.198576,-0.539728,208484.000000,722438.000000
1159.775223,-0.538590,208962.000000,722200.000000
1163.347470,-0.538172,209317.000000,722730.000000
1166.915316,-0.537485,209935.000000,723718.000000
1170.478763,-0.534903,211435.000000,724569.000000
1174.037809,-0.531297,213105.000000,724254.000000
1178.776359,-0.530403,214394.000000,727136.000000
1182.325139,-0.524219,217962.000000,728785.000000
1185.869518,-0.522068,220075.000000,732215.000000
1189.409497,-0.518153,222694.000000,734279.000000
1192.945076,-0.517041,224594.000000,738650.000000
1196.476255,-0.515709,226828.000000,743714.000000
1200.003034,-0.513927,229675.000000,749964.000000
1204.698561,-0.513368,232729.000000,758960.000000
1208.215073,-0.512574,235830.000000,767668.000000
1211.727185,-0.511160,238631.000000,774260.000000
1215.234896,-0.510213,241974.000000,783396.000000
1218.738208,-0.509734,245450.000000,793774.000000
1222.237119,-0.508166,248996.000000,802339.000000
1226.895489,-0.507948,254001.000000,818056.000000
1230.384134,-0.507727,257796.000000,829856.000000
1233.868378,-0.509499,261030.000000,843702.000000
1237.348222,-0.510057,264910.000000,857344.000000
1240.823666,-0.510140,269187.000000,871353.000000
1244.294710,-0.509053,274535.000000,886442.000000
1247.761354,-0.510716,278817.000000,903722.000000
1252.376701,-0.510994,285943.000000,927414.000000
1255.833078,-0.510342,292339.000000,946736.000000
1259.285055,-0.509710,298387.000000,964917.000000
1262.732632,-0.510205,303484.000000,982519.000000
1266.175808,-0.510546,308643.000000,1000006.000000
1269.614584,-0.510173,313923.000000,1016240.000000
1273.048961,-0.510017,319097.000000,1032618.000000
1277.621284,-0.511066,324380.000000,1052252.000000
1281.045394,-0.510350,329793.000000,1068050.000000
1284.465103,-0.510951,333450.000000,1081388.000000
1287.880412,-0.511295,337104.000000,1094104.000000
1291.291321,-0.512237,340768.000000,1108397.000000
1294.697830,-0.512181,344605.000000,1120733.000000
1299.232997,-0.511711,349244.000000,1134593.000000
1302.629239,-0.511534,352441.000000,1144513.000000
1306.021081,-0.511427,355144.000000,1153005.000000
1309.408522,-0.511139,357732.000000,1160639.000000
1312.791564,-0.510131,360160.000000,1165806.000000
1316.170205,-0.510339,362173.000000,1172883.000000
1319.544447,-0.510323,364403.000000,1180062.000000
1324.036591,-0.510309,366317.000000,1186221.000000
1327.400565,-0.510964,366589.000000,1188896.000000
1330.760139,-0.508975,368623.000000,1190028.000000
1334.115313,-0.509528,368498.000000,1191141.000000
1337.466087,-0.507986,370046.000000,1191904.000000
1340.812461,-0.507092,370709.000000,1191585.000000
1344.154435,-0.505691,371502.000000,1190288.000000
1348.603555,-0.503979,371615.000000,1185966.000000
1351.935262,-0.502682,370997.000000,1180464.000000
1355.262569,-0.499011,371791.000000,1173031.000000
1358.585475,-0.497021,370879.000000,1164804.000000
1361.903982,-0.495020,370539.000000,1158387.000000
1365.218088,-0.491242,371657.000000,1151820.000000
1369.630052,-0.487819,372397.000000,1145053.000000
1372.933891,-0.485845,372524.000000,1140248.000000
1376.233331,-0.484082,372314.000000,1134988.000000
1379.528370,-0.482879,371243.000000,1128594.000000
1382.819009,-0.482786,369231.000000,1122236.000000
1386.105248,-0.481100,367705.000000,1113267.000000
1389.387087,-0.478688,367073.000000,1105198.000000
1393.756027,-0.475314,365715.000000,1092589.000000
1397.027599,-0.472267,365152.000000,1083279.000000
1400.294771,-0.467799,365097.000000,1072031.000000
1403.557542,-0.463974,364333.000000,1060407.000000
1406.815914,-0.456930,365413.000000,1046439.000000
1410.069885,-0.450472,365734.000000,1031899.000000
1413.319456,-0.443390,364947.000000,1013024.000000
1417.645373,-0.432612,365539.000000,989795.000000
1420.884678,-0.424711,365230.000000,971130.000000
1424.119582,-0.417127,365533.000000,955110.000000
1427.350086,-0.411660,364906.000000,941544.000000
1430.576190,-0.404765,365583.000000,928434.000000
1433.797894,-0.399539,365648.000000,917491.000000
1437.015198,-0.394497,365698.000000,907025.000000
1441.298091,-0.390813,364890.000000,897377.000000
1444.505128,-0.387493,364741.000000,890179.000000
1447.707765,-0.384379,364393.000000,882977.000000
1450.906001,-0.383196,363044.000000,877314.000000
1454.099838,-0.380377,362635.000000,870657.000000
1457.289274,-0.378284,361653.000000,864124.000000
1461.535011,-0.375365,360303.000000,855131.000000
1464.714180,-0.373889,358064.000000,846935.000000
1467.888950,-0.370684,356949.000000,838089.000000
1471.059319,-0.367779,355912.000000,830084.000000
1474.225288,-0.366550,353737.000000,822680.000000
1477.386857,-0.364138,352477.000000,815208.000000
1480.544025,-0.364194,349693.000000,808875.000000
1484.746739,-0.361641,347943.000000,800108.000000
1487.893641,-0.363507,344781.000000,796252.000000
1491.036142,-0.364180,342531.000000,792283.000000
1494.174244,-0.364487,340170.000000,787378.000000
1497.307945,-0.365796,337701.000000,784022.000000
1500.437247,-0.367786,334446.000000,780031.000000
1503.562148,-0.369333,331876.000000,776800.000000
1507.721838,-0.371673,327918.000000,771682.000000
1510.836473,-0.374074,324967.000000,768976.000000
1513.946707,-0.376480,321718.000000,765518.000000
1517.052541,-0.376389,319073.000000,759066.000000
1520.153975,-0.378638,315575.000000,754641.000000
1523.251008,-0.380812,311252.000000,748038.000000
1527.373542,-0.381437,306492.000000,737659.000000
1530.460309,-0.381885,302471.000000,728733.000000
1533.542676,-0.382478,298873.000000,721049.000000
1536.620642,-0.381994,294593.000000,709931.000000
1539.694209,-0.383160,290524.000000,702008.000000
1542.763375,-0.384275,285805.000000,692380.000000
1545.828141,-0.384049,281854.000000,682453.000000
1549.907652,-0.386560,274841.000000,669332.000000
1552.962151,-0.386747,270515.000000,659080.000000
1556.012250,-0.388797,265203.000000,649195.000000
1559.057949,-0.390193,260042.000000,638611.000000
1562.099248,-0.389275,255973.000000,627291.000000
1565.136147,-0.390193,250523.000000,615235.000000
1568.168646,-0.391227,245616.000000,604621.000000
1572.205133,-0.392381,238774.000000,589343.000000
1575.227365,-0.393133,234179.000000,579003.000000
1578.245196,-0.394154,228934.000000,567367.000000
1581.258628,-0.396670,223478.000000,557063.000000
1584.267659,-0.396793,218239.000000,544158.000000
1587.272290,-0.398377,213357.000000,533930.000000
1591.271621,-0.400774,206678.000000,520078.000000
1594.265985,-0.405227,200655.000000,510125.000000
1597.255949,-0.407193,196105.000000,500820.000000
1600.241513,-0.409426,191413.000000,491357.000000
1603.222677,-0.411685,186271.000000,480651.000000
1606.199441,-0.414676,181567.000000,471751.000000
1609.171805,-0.417184,176656.000000,461649.000000
1613.128112,-0.421694,170106.000000,449173.000000
1616.090209,-0.423982,165195.000000,438509.000000
1619.047905,-0.425050,160661.000000,427524.000000
1622.001202,-0.432144,154762.000000,418609.000000
1624.950098,-0.436248,149284.000000,407625.000000
1627.894595,-0.440706,144304.000000,398093.000000
1630.834691,-0.447038,138573.000000,387897.000000
1634.747975,-0.454533,131373.000000,374144.000000
1637.677804,-0.459364,126061.000000,363032.000000
1640.603233,-0.467828,120043.000000,352505.000000
1643.524262,-0.476364,114222.000000,342069.000000
1646.440891,-0.481394,109595.000000,332036.000000
1649.353120,-0.488478,104146.000000,320716.000000
1653.229247,-0.476632,102337.000000,306665.000000
1656.131209,-0.470765,100118.000000,295990.000000
1659.028770,-0.475961,95076.000000,284467.000000
1661.921932,-0.466905,93881.000000,275095.000000
1664.810693,-0.462190,90392.000000,262011.000000
1667.695055,-0.463657,85969.000000,250034.000000
1670.575016,-0.457853,82225.000000,235970.000000
1674.408120,-0.436780,78925.000000,215772.000000
1677.277814,-inf,0.000000,198764.000000
1680.143108,-inf,0.000000,179249.000000
1683.004002,nan,-2147483648.000000,158017.000000
1685.860496,nan,-2147483648.000000,138289.000000
1688.712590,nan,-2147483648.000000,118477.000000
1691.560283,nan,-2147483648.000000,99541.000000
1695.350364,nan,-2147483648.000000,78627.000000
1698.187790,nan,-2147483648.000000,64641.000000
1701.020817,-inf,0.000000,54446.000000
