Method:,erol,,
Host Date-Time:,7/12/23 @ 14:20:31,,
Header Version:,1,,
System Temp (C):,40.34,,
Detector Temp (C):,27.25,,
Humidity (%):,16.36,,
Lamp PD:,3581,,
Shift Vector Coefficients:,-4.80707,0.053312,-0.000138677,,
Pixel to Wavelength Coefficients:,1763.6,-0.910608,-0.000244451,,
Serial Number:,6110061,,
Scan Config Name:,erol,,
Scan Config Type:,Slew,,
Section 1,,
Start wavelength (nm):,900,,
End wavelength (nm):,1700,,
Pattern Pixel Width (nm):,  11.71,,,,
Exposure (ms):,  0.635,,,,
Digital Resolution:,228,,
Num Repeats:,1,,
PGA Gain:,64,,
Total Measurement Time in sec:,  1.593,,
Wavelength (nm),Absorbance (AU),Reference Signal (unitless),Sample Signal (unitless)
901.370984,-0.768636,22318.000000,131006.000000
905.248306,-0.756423,26694.000000,152348.000000
909.121227,-0.750867,30240.000000,170392.000000
912.989749,-0.722604,35053.000000,185067.000000
918.140932,-0.717956,39668.000000,207203.000000
921.999187,-0.710098,44171.000000,226587.000000
925.853041,-0.703825,49463.000000,250095.000000
929.702495,-0.703197,55176.000000,278578.000000
933.547549,-0.698131,62603.000000,312411.000000
937.388203,-0.694856,70557.000000,349459.000000
941.224457,-0.685312,79215.000000,383813.000000
946.332618,-0.679650,90003.000000,430434.000000
950.158605,-0.676928,97001.000000,461003.000000
953.980191,-0.671265,104340.000000,489458.000000
957.797378,-0.667389,111157.000000,516804.000000
961.610165,-0.667065,117414.000000,545488.000000
965.418551,-0.663056,124361.000000,572454.000000
969.222537,-0.660021,131496.000000,601082.000000
974.287675,-0.657454,140925.000000,640386.000000
978.081394,-0.656613,148023.000000,671339.000000
981.870713,-0.654262,155197.000000,700077.000000
985.655632,-0.653650,162010.000000,729779.000000
989.436151,-0.650589,170019.000000,760477.000000
993.212270,-0.650312,176266.000000,787918.000000
998.240251,-0.647469,184964.000000,821402.000000
1002.006103,-0.646372,190519.000000,843937.000000
1005.767554,-0.644156,196102.000000,864248.000000
1009.524606,-0.644159,200098.000000,881864.000000
1013.277258,-0.641402,204164.000000,894090.000000
1017.025509,-0.641593,206631.000000,905292.000000
1020.769360,-0.639998,209246.000000,913387.000000
1025.754318,-0.637449,211932.000000,919698.000000
1029.487902,-0.636844,213316.000000,924417.000000
1033.217086,-0.635902,213821.000000,924596.000000
1036.941870,-0.636240,213615.000000,924425.000000
1040.662255,-0.635480,213930.000000,924170.000000
1044.378238,-0.633190,213905.000000,919203.000000
1048.089822,-0.633657,213173.000000,917042.000000
1053.031756,-0.633013,211884.000000,910147.000000
1056.733073,-0.631748,211098.000000,904132.000000
1060.429990,-0.631904,209880.000000,899239.000000
1064.122506,-0.631289,209078.000000,894534.000000
1067.810623,-0.630279,208224.000000,888812.000000
1071.494339,-0.631179,206922.000000,885086.000000
1076.399116,-0.629839,206676.000000,881311.000000
1080.072566,-0.629925,206200.000000,879456.000000
1083.741615,-0.630180,205636.000000,877565.000000
1087.406264,-0.629377,205874.000000,876957.000000
1091.066513,-0.628511,205797.000000,874884.000000
1094.722362,-0.630170,205514.000000,877023.000000
1098.373811,-0.630097,205628.000000,877362.000000
1103.235565,-0.627611,206788.000000,877276.000000
1106.876747,-0.629460,206389.000000,879320.000000
1110.513529,-0.628670,206615.000000,878682.000000
1114.145910,-0.629120,206738.000000,880116.000000
1117.773892,-0.629215,206547.000000,879497.000000
1121.397473,-0.628473,207088.000000,880295.000000
1125.016654,-0.630031,206464.000000,880797.000000
1129.835385,-0.628800,207418.000000,882362.000000
1133.444299,-0.628253,207695.000000,882427.000000
1137.048813,-0.626223,208493.000000,881688.000000
1140.648927,-0.626452,208223.000000,881010.000000
1144.244641,-0.626166,208337.000000,880911.000000
1147.835955,-0.624762,208774.000000,879911.000000
1152.617529,-0.624563,208238.000000,877250.000000
1156.198576,-0.622935,208484.000000,875000.000000
1159.775223,-0.622004,208962.000000,875128.000000
1163.347470,-0.620748,209317.000000,874083.000000
1166.915316,-0.619304,209935.000000,873754.000000
1170.478763,-0.616111,211435.000000,873551.000000
1174.037809,-0.613340,213105.000000,874850.000000
1178.776359,-0.611008,214394.000000,875429.000000
1182.325139,-0.603595,217962.000000,874935.000000
1185.869518,-0.601180,220075.000000,878519.000000
1189.409497,-0.597530,222694.000000,881532.000000
1192.945076,-0.594965,224594.000000,883819.000000
1196.476255,-0.593621,226828.000000,889852.000000
1200.003034,-0.590648,229675.000000,894873.000000
1204.698561,-0.590131,232729.000000,905695.000000
1208.215073,-0.588317,235830.000000,913936.000000
1211.727185,-0.587703,238631.000000,923485.000000
1215.234896,-0.586435,241974.000000,933692.000000
1218.738208,-0.586048,245450.000000,946261.000000
1222.237119,-0.584797,248996.000000,957171.000000
1226.895489,-0.584126,254001.000000,974902.000000
1230.384134,-0.584590,257796.000000,990526.000000
1233.868378,-0.585763,261030.000000,1005666.000000
1237.348222,-0.586557,264910.000000,1022482.000000
1240.823666,-0.586806,269187.000000,1039585.000000
1244.294710,-0.586441,274535.000000,1059347.000000
1247.761354,-0.587799,278817.000000,1079240.000000
1252.376701,-0.588851,285943.000000,1109509.000000
1255.833078,-0.588120,292339.000000,1132417.000000
1259.285055,-0.588398,298387.000000,1156585.000000
1262.732632,-0.588662,303484.000000,1177059.000000
1266.175808,-0.589467,308643.000000,1199287.000000
1269.614584,-0.589420,313923.000000,1219673.000000
1273.048961,-0.589085,319097.000000,1238818.000000
1277.621284,-0.591231,324380.000000,1265568.000000
1281.045394,-0.590269,329793.000000,1283840.000000
1284.465103,-0.591918,333450.000000,1303014.000000
1287.880412,-0.592556,337104.000000,1319227.000000
1291.291321,-0.593309,340768.000000,1335880.000000
1294.697830,-0.593188,344605.000000,1350546.000000
1299.232997,-0.593468,349244.000000,1369610.000000
1302.629239,-0.593410,352441.000000,1381964.000000
1306.021081,-0.593371,355144.000000,1392437.000000
1309.408522,-0.593016,357732.000000,1401439.000000
1312.791564,-0.592260,360160.000000,1408496.000000
1316.170205,-0.592530,362173.000000,1417250.000000
1319.544447,-0.591757,364403.000000,1423440.000000
1324.036591,-0.592137,366317.000000,1432168.000000
1327.400565,-0.592383,366589.000000,1434043.000000
1330.760139,-0.590313,368623.000000,1435144.000000
1334.115313,-0.590694,368498.000000,1435916.000000
1337.466087,-0.588406,370046.000000,1434373.000000
1340.812461,-0.586762,370709.000000,1431512.000000
1344.154435,-0.584761,371502.000000,1427979.000000
1348.603555,-0.582228,371615.000000,1420108.000000
1351.935262,-0.580227,370997.000000,1411230.000000
1355.262569,-0.575607,371791.000000,1399284.000000
1358.585475,-0.573412,370879.000000,1388816.000000
1361.903982,-0.569827,370539.000000,1376134.000000
1365.218088,-0.565450,371657.000000,1366445.000000
1369.630052,-0.561531,372397.000000,1356867.000000
1372.933891,-0.558914,372524.000000,1349175.000000
1376.233331,-0.557259,372314.000000,1343287.000000
1379.528370,-0.555990,371243.000000,1335513.000000
1382.819009,-0.554940,369231.000000,1325069.000000
1386.105248,-0.552963,367705.000000,1313599.000000
1389.387087,-0.549863,367073.000000,1302014.000000
1393.756027,-0.545773,365715.000000,1285037.000000
1397.027599,-0.541408,365152.000000,1270229.000000
1400.294771,-0.535837,365097.000000,1253849.000000
1403.557542,-0.530767,364333.000000,1236704.000000
1406.815914,-0.522544,365413.000000,1217106.000000
1410.069885,-0.514378,365734.000000,1195483.000000
1413.319456,-0.506322,364947.000000,1170987.000000
1417.645373,-0.493375,365539.000000,1138436.000000
1420.884678,-0.484785,365230.000000,1115197.000000
1424.119582,-0.476089,365533.000000,1093995.000000
1427.350086,-0.469141,364906.000000,1074785.000000
1430.576190,-0.461746,365583.000000,1058600.000000
1433.797894,-0.455995,365648.000000,1044860.000000
1437.015198,-0.450364,365698.000000,1031542.000000
1441.298091,-0.445805,364890.000000,1018515.000000
1444.505128,-0.441892,364741.000000,1008967.000000
1447.707765,-0.438511,364393.000000,1000186.000000
1450.906001,-0.436877,363044.000000,992742.000000
1454.099838,-0.434119,362635.000000,985347.000000
1457.289274,-0.430941,361653.000000,975512.000000
1461.535011,-0.427256,360303.000000,963660.000000
1464.714180,-0.425254,358064.000000,953267.000000
1467.888950,-0.423116,356949.000000,945632.000000
1471.059319,-0.419559,355912.000000,935194.000000
1474.225288,-0.417407,353737.000000,924884.000000
1477.386857,-0.414480,352477.000000,915400.000000
1480.544025,-0.414430,349693.000000,908066.000000
1484.746739,-0.411911,347943.000000,898296.000000
1487.893641,-0.413388,344781.000000,893164.000000
1491.036142,-0.412748,342531.000000,886029.000000
1494.174244,-0.413911,340170.000000,882282.000000
1497.307945,-0.414492,337701.000000,877050.000000
1500.437247,-0.417316,334446.000000,874262.000000
1503.562148,-0.419053,331876.000000,871021.000000
1507.721838,-0.421840,327918.000000,866174.000000
1510.836473,-0.424016,324967.000000,862691.000000
1513.946707,-0.426137,321718.000000,858248.000000
1517.052541,-0.426935,319073.000000,852757.000000
1520.153975,-0.428848,315575.000000,847131.000000
1523.251008,-0.431084,311252.000000,839840.000000
1527.373542,-0.432366,306492.000000,829440.000000
1530.460309,-0.433319,302471.000000,820357.000000
1533.542676,-0.432838,298873.000000,809701.000000
1536.620642,-0.433123,294593.000000,798629.000000
1539.694209,-0.433208,290524.000000,787753.000000
1542.763375,-0.434189,285805.000000,776709.000000
1545.828141,-0.434503,281854.000000,766527.000000
1549.907652,-0.436489,274841.000000,750880.000000
1552.962151,-0.437441,270515.000000,740683.000000
1556.012250,-0.439090,265203.000000,728900.000000
1559.057949,-0.440556,260042.000000,717133.000000
1562.099248,-0.439752,255973.000000,704605.000000
1565.136147,-0.441820,250523.000000,692895.000000
1568.168646,-0.442861,245616.000000,680954.000000
1572.205133,-0.443822,238774.000000,663452.000000
1575.227365,-0.444276,234179.000000,651364.000000
1578.245196,-0.445740,228934.000000,638926.000000
1581.258628,-0.447963,223478.000000,626900.000000
1584.267659,-0.449685,218239.000000,614635.000000
1587.272290,-0.450824,213357.000000,602464.000000
1591.271621,-0.453802,206678.000000,587620.000000
1594.265985,-0.457734,200655.000000,575684.000000
1597.255949,-0.459840,196105.000000,565365.000000
1600.241513,-0.462647,191413.000000,555416.000000
1603.222677,-0.466246,186271.000000,544993.000000
1606.199441,-0.469070,181567.000000,534696.000000
1609.171805,-0.473216,176656.000000,525224.000000
1613.128112,-0.477785,170106.000000,511099.000000
1616.090209,-0.481690,165195.000000,500826.000000
1619.047905,-0.484757,160661.000000,490532.000000
1622.001202,-0.490621,154762.000000,478945.000000
1624.950098,-0.497321,149284.000000,469174.000000
1627.894595,-0.499205,144304.000000,455495.000000
1630.834691,-0.507813,138573.000000,446161.000000
1634.747975,-0.514916,131373.000000,429954.000000
1637.677804,-0.520737,126061.000000,418136.000000
1640.603233,-0.529936,120043.000000,406699.000000
1643.524262,-0.538029,114222.000000,394256.000000
1646.440891,-0.542358,109595.000000,382075.000000
1649.353120,-0.550644,104146.000000,370072.000000
1653.229247,-0.539361,102337.000000,354318.000000
1656.131209,-0.532831,100118.000000,341463.000000
1659.028770,-0.539898,95076.000000,329586.000000
1661.921932,-0.529476,93881.000000,317727.000000
1664.810693,-0.527486,90392.000000,304520.000000
1667.695055,-0.526858,85969.000000,289201.000000
1670.575016,-0.521955,82225.000000,273501.000000
1674.408120,-0.502587,78925.000000,251074.000000
1677.277814,-inf,0.000000,231727.000000
1680.143108,-inf,0.000000,208697.000000
1683.004002,nan,-2147483648.000000,185276.000000
1685.860496,nan,-2147483648.000000,161129.000000
1688.712590,nan,-2147483648.000000,138781.000000
1691.560283,nan,-2147483648.000000,116237.000000
1695.350364,nan,-2147483648.000000,92850.000000
1698.187790,nan,-2147483648.000000,76875.000000
1701.020817,-inf,0.000000,63736.000000
