Method:,erol,,
Host Date-Time:,7/12/23 @ 14:21:55,,
Header Version:,1,,
System Temp (C):,40.56,,
Detector Temp (C):,27.12,,
Humidity (%):,16.27,,
Lamp PD:,3591,,
Shift Vector Coefficients:,-4.80707,0.053312,-0.000138677,,
Pixel to Wavelength Coefficients:,1763.6,-0.910608,-0.000244451,,
Serial Number:,6110061,,
Scan Config Name:,erol,,
Scan Config Type:,Slew,,
Section 1,,
Start wavelength (nm):,900,,
End wavelength (nm):,1700,,
Pattern Pixel Width (nm):,  11.71,,,,
Exposure (ms):,  0.635,,,,
Digital Resolution:,228,,
Num Repeats:,1,,
PGA Gain:,64,,
Total Measurement Time in sec:,  1.640,,
Wavelength (nm),Absorbance (AU),Reference Signal (unitless),Sample Signal (unitless)
901.370984,-0.703427,22318.000000,112741.000000
905.248306,-0.691153,26694.000000,131089.000000
909.121227,-0.682063,30240.000000,145427.000000
912.989749,-0.657526,35053.000000,159313.000000
918.140932,-0.654005,39668.000000,178832.000000
921.999187,-0.646018,44171.000000,195504.000000
925.853041,-0.641542,49463.000000,216682.000000
929.702495,-0.640840,55176.000000,241318.000000
933.547549,-0.634944,62603.000000,270109.000000
937.388203,-0.630652,70557.000000,301434.000000
941.224457,-0.624934,79215.000000,333996.000000
946.332618,-0.616926,90003.000000,372549.000000
950.158605,-0.615364,97001.000000,400074.000000
953.980191,-0.609946,104340.000000,425008.000000
957.797378,-0.605969,111157.000000,448648.000000
961.610165,-0.605124,117414.000000,472981.000000
965.418551,-0.601765,124361.000000,497106.000000
969.222537,-0.600053,131496.000000,523559.000000
974.287675,-0.596848,140925.000000,556976.000000
978.081394,-0.595322,148023.000000,582977.000000
981.870713,-0.594121,155197.000000,609543.000000
985.655632,-0.593030,162010.000000,634705.000000
989.436151,-0.590163,170019.000000,661699.000000
993.212270,-0.590654,176266.000000,686788.000000
998.240251,-0.588006,184964.000000,716297.000000
1002.006103,-0.587220,190519.000000,736476.000000
1005.767554,-0.584766,196102.000000,753786.000000
1009.524606,-0.583832,200098.000000,767494.000000
1013.277258,-0.581679,204164.000000,779217.000000
1017.025509,-0.581614,206631.000000,788515.000000
1020.769360,-0.580276,209246.000000,796037.000000
1025.754318,-0.578741,211932.000000,803410.000000
1029.487902,-0.576926,213316.000000,805284.000000
1033.217086,-0.576439,213821.000000,806286.000000
1036.941870,-0.576368,213615.000000,805378.000000
1040.662255,-0.575167,213930.000000,804339.000000
1044.378238,-0.573921,213905.000000,801940.000000
1048.089822,-0.573653,213173.000000,798703.000000
1053.031756,-0.572683,211884.000000,792103.000000
1056.733073,-0.571445,211098.000000,786918.000000
1060.429990,-0.571553,209880.000000,782571.000000
1064.122506,-0.570184,209078.000000,777127.000000
1067.810623,-0.569515,208224.000000,772762.000000
1071.494339,-0.571138,206922.000000,770806.000000
1076.399116,-0.568610,206676.000000,765420.000000
1080.072566,-0.568781,206200.000000,763959.000000
1083.741615,-0.569178,205636.000000,762565.000000
1087.406264,-0.567648,205874.000000,760763.000000
1091.066513,-0.567837,205797.000000,760809.000000
1094.722362,-0.569147,205514.000000,762058.000000
1098.373811,-0.568221,205628.000000,760858.000000
1103.235565,-0.566774,206788.000000,762604.000000
1106.876747,-0.567345,206389.000000,762134.000000
1110.513529,-0.567036,206615.000000,762427.000000
1114.145910,-0.567614,206738.000000,763897.000000
1117.773892,-0.567833,206547.000000,763576.000000
1121.397473,-0.567351,207088.000000,764727.000000
1125.016654,-0.568901,206464.000000,765147.000000
1129.835385,-0.566908,207418.000000,765164.000000
1133.444299,-0.566640,207695.000000,765713.000000
1137.048813,-0.565108,208493.000000,765948.000000
1140.648927,-0.564937,208223.000000,764656.000000
1144.244641,-0.565187,208337.000000,765514.000000
1147.835955,-0.564016,208774.000000,765055.000000
1152.617529,-0.564213,208238.000000,763436.000000
1156.198576,-0.563788,208484.000000,763590.000000
1159.775223,-0.561963,208962.000000,762133.000000
1163.347470,-0.562002,209317.000000,763495.000000
1166.915316,-0.560919,209935.000000,763843.000000
1170.478763,-0.558620,211435.000000,765238.000000
1174.037809,-0.555109,213105.000000,765073.000000
1178.776359,-0.553988,214394.000000,767716.000000
1182.325139,-0.547657,217962.000000,769197.000000
1185.869518,-0.545448,220075.000000,772714.000000
1189.409497,-0.541642,222694.000000,775087.000000
1192.945076,-0.540157,224594.000000,779032.000000
1196.476255,-0.538219,226828.000000,783277.000000
1200.003034,-0.536847,229675.000000,790607.000000
1204.698561,-0.535772,232729.000000,799140.000000
1208.215073,-0.534223,235830.000000,806904.000000
1211.727185,-0.533223,238631.000000,814610.000000
1215.234896,-0.532629,241974.000000,824894.000000
1218.738208,-0.532124,245450.000000,835770.000000
1222.237119,-0.530699,248996.000000,845068.000000
1226.895489,-0.530050,254001.000000,860767.000000
1230.384134,-0.530287,257796.000000,874104.000000
1233.868378,-0.531783,261030.000000,888123.000000
1237.348222,-0.531881,264910.000000,901528.000000
1240.823666,-0.531966,269187.000000,916262.000000
1244.294710,-0.531718,274535.000000,933933.000000
1247.761354,-0.532717,278817.000000,950685.000000
1252.376701,-0.533346,285943.000000,976395.000000
1255.833078,-0.532428,292339.000000,996127.000000
1259.285055,-0.531969,298387.000000,1015661.000000
1262.732632,-0.532441,303484.000000,1034134.000000
1266.175808,-0.533172,308643.000000,1053486.000000
1269.614584,-0.532656,313923.000000,1070236.000000
1273.048961,-0.532413,319097.000000,1087266.000000
1277.621284,-0.533962,324380.000000,1109216.000000
1281.045394,-0.533574,329793.000000,1126719.000000
1284.465103,-0.534108,333450.000000,1140615.000000
1287.880412,-0.535005,337104.000000,1155498.000000
1291.291321,-0.535611,340768.000000,1169687.000000
1294.697830,-0.535392,344605.000000,1182262.000000
1299.232997,-0.535619,349244.000000,1198804.000000
1302.629239,-0.535475,352441.000000,1209377.000000
1306.021081,-0.535390,355144.000000,1218414.000000
1309.408522,-0.534966,357732.000000,1226093.000000
1312.791564,-0.534620,360160.000000,1233434.000000
1316.170205,-0.535028,362173.000000,1241492.000000
1319.544447,-0.534699,364403.000000,1248190.000000
1324.036591,-0.534748,366317.000000,1254887.000000
1327.400565,-0.535461,366589.000000,1257883.000000
1330.760139,-0.533716,368623.000000,1259790.000000
1334.115313,-0.534087,368498.000000,1260439.000000
1337.466087,-0.532504,370046.000000,1261131.000000
1340.812461,-0.531914,370709.000000,1261675.000000
1344.154435,-0.530000,371502.000000,1258812.000000
1348.603555,-0.528101,371615.000000,1253702.000000
1351.935262,-0.526563,370997.000000,1247193.000000
1355.262569,-0.523135,371791.000000,1240035.000000
1358.585475,-0.521612,370879.000000,1232664.000000
1361.903982,-0.518885,370539.000000,1223825.000000
1365.218088,-0.515074,371657.000000,1216793.000000
1369.630052,-0.511894,372397.000000,1210321.000000
1372.933891,-0.510037,372524.000000,1205568.000000
1376.233331,-0.508131,372314.000000,1199612.000000
1379.528370,-0.506516,371243.000000,1191720.000000
1382.819009,-0.506333,369231.000000,1184763.000000
1386.105248,-0.504339,367705.000000,1174460.000000
1389.387087,-0.502459,367073.000000,1167378.000000
1393.756027,-0.499521,365715.000000,1155218.000000
1397.027599,-0.496183,365152.000000,1144609.000000
1400.294771,-0.491278,365097.000000,1131583.000000
1403.557542,-0.487763,364333.000000,1120113.000000
1406.815914,-0.480163,365413.000000,1103944.000000
1410.069885,-0.472947,365734.000000,1086706.000000
1413.319456,-0.466141,364947.000000,1067506.000000
1417.645373,-0.454861,365539.000000,1041825.000000
1420.884678,-0.447171,365230.000000,1022674.000000
1424.119582,-0.439109,365533.000000,1004697.000000
1427.350086,-0.432411,364906.000000,987625.000000
1430.576190,-0.425375,365583.000000,973557.000000
1433.797894,-0.419795,365648.000000,961298.000000
1437.015198,-0.414716,365698.000000,950252.000000
1441.298091,-0.410282,364890.000000,938522.000000
1444.505128,-0.406864,364741.000000,930783.000000
1447.707765,-0.404338,364393.000000,924502.000000
1450.906001,-0.402031,363044.000000,916200.000000
1454.099838,-0.399209,362635.000000,909241.000000
1457.289274,-0.396601,361653.000000,901349.000000
1461.535011,-0.392868,360303.000000,890300.000000
1464.714180,-0.390886,358064.000000,880738.000000
1467.888950,-0.387684,356949.000000,871545.000000
1471.059319,-0.384321,355912.000000,862310.000000
1474.225288,-0.381803,353737.000000,852087.000000
1477.386857,-0.379121,352477.000000,843824.000000
1480.544025,-0.379922,349693.000000,838704.000000
1484.746739,-0.376479,347943.000000,827918.000000
1487.893641,-0.378409,344781.000000,824048.000000
1491.036142,-0.377864,342531.000000,817644.000000
1494.174244,-0.378564,340170.000000,813318.000000
1497.307945,-0.379235,337701.000000,808663.000000
1500.437247,-0.381911,334446.000000,805819.000000
1503.562148,-0.382976,331876.000000,801590.000000
1507.721838,-0.386382,327918.000000,798265.000000
1510.836473,-0.384942,324967.000000,788463.000000
1513.946707,-0.390539,321718.000000,790705.000000
1517.052541,-0.391904,319073.000000,786673.000000
1520.153975,-0.393202,315575.000000,780378.000000
1523.251008,-0.395509,311252.000000,773786.000000
1527.373542,-0.396276,306492.000000,763300.000000
1530.460309,-0.397446,302471.000000,755317.000000
1533.542676,-0.397800,298873.000000,746942.000000
1536.620642,-0.397113,294593.000000,735082.000000
1539.694209,-0.398214,290524.000000,726768.000000
1542.763375,-0.399202,285805.000000,716592.000000
1545.828141,-0.399654,281854.000000,707422.000000
1549.907652,-0.401560,274841.000000,692853.000000
1552.962151,-0.402886,270515.000000,684034.000000
1556.012250,-0.404177,265203.000000,672598.000000
1559.057949,-0.405380,260042.000000,661338.000000
1562.099248,-0.405484,255973.000000,651146.000000
1565.136147,-0.407524,250523.000000,640282.000000
1568.168646,-0.408783,245616.000000,629564.000000
1572.205133,-0.410456,238774.000000,614388.000000
1575.227365,-0.410475,234179.000000,602591.000000
1578.245196,-0.411699,228934.000000,590757.000000
1581.258628,-0.413649,223478.000000,579273.000000
1584.267659,-0.415901,218239.000000,568635.000000
1587.272290,-0.416105,213357.000000,556175.000000
1591.271621,-0.419506,206678.000000,543000.000000
1594.265985,-0.424201,200655.000000,532906.000000
1597.255949,-0.426994,196105.000000,524183.000000
1600.241513,-0.428883,191413.000000,513871.000000
1603.222677,-0.433349,186271.000000,505236.000000
1606.199441,-0.434825,181567.000000,494154.000000
1609.171805,-0.438217,176656.000000,484558.000000
1613.128112,-0.442618,170106.000000,471344.000000
1616.090209,-0.446486,165195.000000,461831.000000
1619.047905,-0.449885,160661.000000,452684.000000
1622.001202,-0.456057,154762.000000,442304.000000
1624.950098,-0.460342,149284.000000,430879.000000
1627.894595,-0.463912,144304.000000,419943.000000
1630.834691,-0.472593,138573.000000,411407.000000
1634.747975,-0.479919,131373.000000,396666.000000
1637.677804,-0.484573,126061.000000,384728.000000
1640.603233,-0.493586,120043.000000,374044.000000
1643.524262,-0.502799,114222.000000,363537.000000
1646.440891,-0.506653,109595.000000,351920.000000
1649.353120,-0.517321,104146.000000,342739.000000
1653.229247,-0.503086,102337.000000,325926.000000
1656.131209,-0.498484,100118.000000,315498.000000
1659.028770,-0.503469,95076.000000,303068.000000
1661.921932,-0.492435,93881.000000,291751.000000
1664.810693,-0.489921,90392.000000,279287.000000
1667.695055,-0.488712,85969.000000,264883.000000
1670.575016,-0.485104,82225.000000,251251.000000
1674.408120,-0.464409,78925.000000,229945.000000
1677.277814,-inf,0.000000,211394.000000
1680.143108,-inf,0.000000,190822.000000
1683.004002,nan,-2147483648.000000,169358.000000
1685.860496,nan,-2147483648.000000,146937.000000
1688.712590,nan,-2147483648.000000,125326.000000
1691.560283,nan,-2147483648.000000,105351.000000
1695.350364,nan,-2147483648.000000,84998.000000
1698.187790,nan,-2147483648.000000,70410.000000
1701.020817,-inf,0.000000,58468.000000
