Method:,erol,,
Host Date-Time:,7/12/23 @ 14:23:21,,
Header Version:,1,,
System Temp (C):,40.91,,
Detector Temp (C):,26.91,,
Humidity (%):,16.03,,
Lamp PD:,3527,,
Shift Vector Coefficients:,-4.80707,0.053312,-0.000138677,,
Pixel to Wavelength Coefficients:,1763.6,-0.910608,-0.000244451,,
Serial Number:,6110061,,
Scan Config Name:,erol,,
Scan Config Type:,Slew,,
Section 1,,
Start wavelength (nm):,900,,
End wavelength (nm):,1700,,
Pattern Pixel Width (nm):,  11.71,,,,
Exposure (ms):,  0.635,,,,
Digital Resolution:,228,,
Num Repeats:,1,,
PGA Gain:,64,,
Total Measurement Time in sec:,  1.593,,
Wavelength (nm),Absorbance (AU),Reference Signal (unitless),Sample Signal (unitless)
901.370984,-0.756862,22318.000000,127502.000000
905.248306,-0.748320,26694.000000,149532.000000
909.121227,-0.738429,30240.000000,165581.000000
912.989749,-0.712848,35053.000000,180956.000000
918.140932,-0.706104,39668.000000,201625.000000
921.999187,-0.697376,44171.000000,220046.000000
925.853041,-0.690841,49463.000000,242729.000000
929.702495,-0.690138,55176.000000,270326.000000
933.547549,-0.683213,62603.000000,301862.000000
937.388203,-0.676813,70557.000000,335238.000000
941.224457,-0.673132,79215.000000,373198.000000
946.332618,-0.663753,90003.000000,414964.000000
950.158605,-0.662045,97001.000000,445473.000000
953.980191,-0.655233,104340.000000,471720.000000
957.797378,-0.651604,111157.000000,498357.000000
961.610165,-0.650846,117414.000000,525492.000000
965.418551,-0.647672,124361.000000,552531.000000
969.222537,-0.643590,131496.000000,578765.000000
974.287675,-0.640748,140925.000000,616221.000000
978.081394,-0.639829,148023.000000,645889.000000
981.870713,-0.638234,155197.000000,674710.000000
985.655632,-0.638457,162010.000000,704691.000000
989.436151,-0.634537,170019.000000,732882.000000
993.212270,-0.634773,176266.000000,760224.000000
998.240251,-0.631676,184964.000000,792070.000000
1002.006103,-0.630551,190519.000000,813747.000000
1005.767554,-0.628433,196102.000000,833519.000000
1009.524606,-0.628255,200098.000000,850155.000000
1013.277258,-0.625941,204164.000000,862820.000000
1017.025509,-0.625988,206631.000000,873340.000000
1020.769360,-0.624492,209246.000000,881351.000000
1025.754318,-0.622579,211932.000000,888742.000000
1029.487902,-0.620705,213316.000000,890693.000000
1033.217086,-0.621362,213821.000000,894155.000000
1036.941870,-0.621270,213615.000000,893103.000000
1040.662255,-0.619560,213930.000000,890905.000000
1044.378238,-0.618661,213905.000000,888959.000000
1048.089822,-0.618555,213173.000000,885701.000000
1053.031756,-0.618248,211884.000000,879724.000000
1056.733073,-0.617071,211098.000000,874088.000000
1060.429990,-0.617034,209880.000000,868970.000000
1064.122506,-0.616068,209078.000000,863727.000000
1067.810623,-0.615489,208224.000000,859053.000000
1071.494339,-0.616216,206922.000000,855112.000000
1076.399116,-0.615591,206676.000000,852866.000000
1080.072566,-0.615297,206200.000000,850326.000000
1083.741615,-0.615932,205636.000000,849241.000000
1087.406264,-0.614696,205874.000000,847808.000000
1091.066513,-0.613772,205797.000000,845689.000000
1094.722362,-0.615398,205514.000000,847694.000000
1098.373811,-0.615027,205628.000000,847441.000000
1103.235565,-0.613177,206788.000000,848599.000000
1106.876747,-0.614128,206389.000000,848818.000000
1110.513529,-0.613902,206615.000000,849305.000000
1114.145910,-0.613939,206738.000000,849883.000000
1117.773892,-0.615393,206547.000000,851946.000000
1121.397473,-0.613988,207088.000000,851418.000000
1125.016654,-0.616232,206464.000000,853250.000000
1129.835385,-0.613112,207418.000000,851056.000000
1133.444299,-0.613619,207695.000000,853189.000000
1137.048813,-0.611765,208493.000000,852818.000000
1140.648927,-0.612125,208223.000000,852421.000000
1144.244641,-0.611648,208337.000000,851951.000000
1147.835955,-0.609997,208774.000000,850499.000000
1152.617529,-0.610802,208238.000000,849888.000000
1156.198576,-0.608863,208484.000000,847103.000000
1159.775223,-0.607888,208962.000000,847140.000000
1163.347470,-0.606544,209317.000000,845958.000000
1166.915316,-0.605483,209935.000000,846384.000000
1170.478763,-0.603070,211435.000000,847709.000000
1174.037809,-0.599369,213105.000000,847155.000000
1178.776359,-0.597248,214394.000000,848127.000000
1182.325139,-0.590033,217962.000000,848035.000000
1185.869518,-0.587149,220075.000000,850588.000000
1189.409497,-0.583325,222694.000000,853166.000000
1192.945076,-0.581175,224594.000000,856195.000000
1196.476255,-0.579517,226828.000000,861418.000000
1200.003034,-0.576378,229675.000000,865947.000000
1204.698561,-0.575559,232729.000000,875810.000000
1208.215073,-0.573747,235830.000000,883784.000000
1211.727185,-0.573698,238631.000000,894180.000000
1215.234896,-0.572517,241974.000000,904245.000000
1218.738208,-0.571487,245450.000000,915062.000000
1222.237119,-0.570920,248996.000000,927070.000000
1226.895489,-0.570083,254001.000000,943884.000000
1230.384134,-0.570551,257796.000000,959019.000000
1233.868378,-0.571848,261030.000000,973953.000000
1237.348222,-0.573045,264910.000000,991160.000000
1240.823666,-0.573660,269187.000000,1008588.000000
1244.294710,-0.572275,274535.000000,1025352.000000
1247.761354,-0.573711,278817.000000,1044793.000000
1252.376701,-0.575307,285943.000000,1075440.000000
1255.833078,-0.574348,292339.000000,1097070.000000
1259.285055,-0.574357,298387.000000,1119792.000000
1262.732632,-0.575391,303484.000000,1141635.000000
1266.175808,-0.576055,308643.000000,1162816.000000
1269.614584,-0.575385,313923.000000,1180886.000000
1273.048961,-0.575506,319097.000000,1200683.000000
1277.621284,-0.577386,324380.000000,1225858.000000
1281.045394,-0.576044,329793.000000,1242468.000000
1284.465103,-0.578036,333450.000000,1262020.000000
1287.880412,-0.578698,337104.000000,1277798.000000
1291.291321,-0.579342,340768.000000,1293602.000000
1294.697830,-0.579511,344605.000000,1308677.000000
1299.232997,-0.579416,349244.000000,1326005.000000
1302.629239,-0.579495,352441.000000,1338385.000000
1306.021081,-0.579254,355144.000000,1347902.000000
1309.408522,-0.578874,357732.000000,1356538.000000
1312.791564,-0.578659,360160.000000,1365069.000000
1316.170205,-0.578996,362173.000000,1373764.000000
1319.544447,-0.577813,364403.000000,1378461.000000
1324.036591,-0.577714,366317.000000,1385386.000000
1327.400565,-0.578332,366589.000000,1388391.000000
1330.760139,-0.576609,368623.000000,1390566.000000
1334.115313,-0.576501,368498.000000,1389749.000000
1337.466087,-0.574160,370046.000000,1388084.000000
1340.812461,-0.572702,370709.000000,1385910.000000
1344.154435,-0.570522,371502.000000,1381920.000000
1348.603555,-0.567657,371615.000000,1373252.000000
1351.935262,-0.565342,370997.000000,1363681.000000
1355.262569,-0.560533,371791.000000,1351548.000000
1358.585475,-0.558188,370879.000000,1340974.000000
1361.903982,-0.554711,370539.000000,1329060.000000
1365.218088,-0.550494,371657.000000,1320191.000000
1369.630052,-0.546021,372397.000000,1309264.000000
1372.933891,-0.543808,372524.000000,1303053.000000
1376.233331,-0.541390,372314.000000,1295088.000000
1379.528370,-0.539607,371243.000000,1286071.000000
1382.819009,-0.539419,369231.000000,1278548.000000
1386.105248,-0.537316,367705.000000,1267114.000000
1389.387087,-0.534440,367073.000000,1256588.000000
1393.756027,-0.530206,365715.000000,1239793.000000
1397.027599,-0.525135,365152.000000,1223512.000000
1400.294771,-0.519275,365097.000000,1206932.000000
1403.557542,-0.514013,364333.000000,1189902.000000
1406.815914,-0.505333,365413.000000,1169815.000000
1410.069885,-0.496867,365734.000000,1148238.000000
1413.319456,-0.489133,364947.000000,1125544.000000
1417.645373,-0.475049,365539.000000,1091397.000000
1420.884678,-0.465819,365230.000000,1067544.000000
1424.119582,-0.456296,365533.000000,1045257.000000
1427.350086,-0.448955,364906.000000,1025974.000000
1430.576190,-0.440823,365583.000000,1008810.000000
1433.797894,-0.434674,365648.000000,994803.000000
1437.015198,-0.429324,365698.000000,982758.000000
1441.298091,-0.424535,364890.000000,969832.000000
1444.505128,-0.420600,364741.000000,960693.000000
1447.707765,-0.417720,364393.000000,953433.000000
1450.906001,-0.415245,363044.000000,944506.000000
1454.099838,-0.412697,362635.000000,937923.000000
1457.289274,-0.409360,361653.000000,928223.000000
1461.535011,-0.405090,360303.000000,915710.000000
1464.714180,-0.403407,358064.000000,906499.000000
1467.888950,-0.399776,356949.000000,896154.000000
1471.059319,-0.395958,355912.000000,885729.000000
1474.225288,-0.393625,353737.000000,875600.000000
1477.386857,-0.390847,352477.000000,866918.000000
1480.544025,-0.390210,349693.000000,858810.000000
1484.746739,-0.388380,347943.000000,850919.000000
1487.893641,-0.389074,344781.000000,844535.000000
1491.036142,-0.388989,342531.000000,838859.000000
1494.174244,-0.389801,340170.000000,834635.000000
1497.307945,-0.390642,337701.000000,830184.000000
1500.437247,-0.393540,334446.000000,827686.000000
1503.562148,-0.394531,331876.000000,823203.000000
1507.721838,-0.398221,327918.000000,820326.000000
1510.836473,-0.399921,324967.000000,816131.000000
1513.946707,-0.401901,321718.000000,811664.000000
1517.052541,-0.402852,319073.000000,806755.000000
1520.153975,-0.405207,315575.000000,802250.000000
1523.251008,-0.407244,311252.000000,794979.000000
1527.373542,-0.407814,306492.000000,783851.000000
1530.460309,-0.408957,302471.000000,775605.000000
1533.542676,-0.408764,298873.000000,766039.000000
1536.620642,-0.408265,294593.000000,754202.000000
1539.694209,-0.409510,290524.000000,745919.000000
1542.763375,-0.409724,285805.000000,734166.000000
1545.828141,-0.409786,281854.000000,724120.000000
1549.907652,-0.412798,274841.000000,711017.000000
1552.962151,-0.412110,270515.000000,698717.000000
1556.012250,-0.414191,265203.000000,688287.000000
1559.057949,-0.415778,260042.000000,677363.000000
1562.099248,-0.415474,255973.000000,666297.000000
1565.136147,-0.416023,250523.000000,652936.000000
1568.168646,-0.417606,245616.000000,642484.000000
1572.205133,-0.419511,238774.000000,627333.000000
1575.227365,-0.419598,234179.000000,615383.000000
1578.245196,-0.420377,228934.000000,602681.000000
1581.258628,-0.422480,223478.000000,591173.000000
1584.267659,-0.423517,218239.000000,578694.000000
1587.272290,-0.425427,213357.000000,568243.000000
1591.271621,-0.428563,206678.000000,554443.000000
1594.265985,-0.433404,200655.000000,544319.000000
1597.255949,-0.435133,196105.000000,534099.000000
1600.241513,-0.438701,191413.000000,525621.000000
1603.222677,-0.442669,186271.000000,516196.000000
1606.199441,-0.446133,181567.000000,507189.000000
1609.171805,-0.448875,176656.000000,496596.000000
1613.128112,-0.454104,170106.000000,483976.000000
1616.090209,-0.458428,165195.000000,474706.000000
1619.047905,-0.460625,160661.000000,464019.000000
1622.001202,-0.467746,154762.000000,454371.000000
1624.950098,-0.472973,149284.000000,443595.000000
1627.894595,-0.477499,144304.000000,433289.000000
1630.834691,-0.484613,138573.000000,422953.000000
1634.747975,-0.491945,131373.000000,407804.000000
1637.677804,-0.498905,126061.000000,397636.000000
1640.603233,-0.508115,120043.000000,386769.000000
1643.524262,-0.516771,114222.000000,375423.000000
1646.440891,-0.521901,109595.000000,364495.000000
1649.353120,-0.531792,104146.000000,354352.000000
1653.229247,-0.519318,102337.000000,338338.000000
1656.131209,-0.513654,100118.000000,326713.000000
1659.028770,-0.519438,95076.000000,314419.000000
1661.921932,-0.508509,93881.000000,302752.000000
1664.810693,-0.506130,90392.000000,289908.000000
1667.695055,-0.508326,85969.000000,277120.000000
1670.575016,-0.506294,82225.000000,263814.000000
1674.408120,-0.482327,78925.000000,239630.000000
1677.277814,-inf,0.000000,221466.000000
1680.143108,-inf,0.000000,200112.000000
1683.004002,nan,-2147483648.000000,176881.000000
1685.860496,nan,-2147483648.000000,153778.000000
1688.712590,nan,-2147483648.000000,131229.000000
1691.560283,nan,-2147483648.000000,111638.000000
1695.350364,nan,-2147483648.000000,87257.000000
1698.187790,nan,-2147483648.000000,73704.000000
1701.020817,-inf,0.000000,60545.000000
