Method:,erol,,
Host Date-Time:,7/12/23 @ 13:28:40,,
Header Version:,1,,
System Temp (C):,30.02,,
Detector Temp (C):,10.42,,
Humidity (%):,33.52,,
Lamp PD:,3669,,
Shift Vector Coefficients:,-4.80707,0.053312,-0.000138677,,
Pixel to Wavelength Coefficients:,1763.6,-0.910608,-0.000244451,,
Serial Number:,6110061,,
Scan Config Name:,erol,,
Scan Config Type:,Slew,,
Section 1,,
Start wavelength (nm):,900,,
End wavelength (nm):,1700,,
Pattern Pixel Width (nm):,  11.71,,,,
Exposure (ms):,  0.635,,,,
Digital Resolution:,228,,
Num Repeats:,1,,
PGA Gain:,64,,
Total Measurement Time in sec:,  1.592,,
Wavelength (nm),Absorbance (AU),Reference Signal (unitless),Sample Signal (unitless)
901.370984,-0.686702,22318.000000,108482.000000
905.248306,-0.675529,26694.000000,126457.000000
909.121227,-0.672324,30240.000000,142202.000000
912.989749,-0.646105,35053.000000,155178.000000
918.140932,-0.642546,39668.000000,174175.000000
921.999187,-0.638975,44171.000000,192359.000000
925.853041,-0.637610,49463.000000,214729.000000
929.702495,-0.642376,55176.000000,242173.000000
933.547549,-0.635424,62603.000000,270408.000000
937.388203,-0.630026,70557.000000,301000.000000
941.224457,-0.620334,79215.000000,330477.000000
946.332618,-0.608009,90003.000000,364977.000000
950.158605,-0.601680,97001.000000,387665.000000
953.980191,-0.594900,104340.000000,410536.000000
957.797378,-0.589957,111157.000000,432408.000000
961.610165,-0.589219,117414.000000,455973.000000
965.418551,-0.584807,124361.000000,478070.000000
969.222537,-0.581393,131496.000000,501540.000000
974.287675,-0.579755,140925.000000,535480.000000
978.081394,-0.578318,148023.000000,560593.000000
981.870713,-0.577350,155197.000000,586453.000000
985.655632,-0.577213,162010.000000,612005.000000
989.436151,-0.573637,170019.000000,636992.000000
993.212270,-0.573058,176266.000000,659518.000000
998.240251,-0.571061,184964.000000,688887.000000
1002.006103,-0.570070,190519.000000,707959.000000
1005.767554,-0.567587,196102.000000,724551.000000
1009.524606,-0.567142,200098.000000,738558.000000
1013.277258,-0.565119,204164.000000,750064.000000
1017.025509,-0.565144,206631.000000,759171.000000
1020.769360,-0.563098,209246.000000,765165.000000
1025.754318,-0.561722,211932.000000,772536.000000
1029.487902,-0.559885,213316.000000,774298.000000
1033.217086,-0.559319,213821.000000,775120.000000
1036.941870,-0.559985,213615.000000,775562.000000
1040.662255,-0.558922,213930.000000,774808.000000
1044.378238,-0.557334,213905.000000,771889.000000
1048.089822,-0.557259,213173.000000,769115.000000
1053.031756,-0.557121,211884.000000,764222.000000
1056.733073,-0.556269,211098.000000,759895.000000
1060.429990,-0.556018,209880.000000,755074.000000
1064.122506,-0.556372,209078.000000,752801.000000
1067.810623,-0.556105,208224.000000,749266.000000
1071.494339,-0.556350,206922.000000,745000.000000
1076.399116,-0.555691,206676.000000,742987.000000
1080.072566,-0.556067,206200.000000,741917.000000
1083.741615,-0.556195,205636.000000,740107.000000
1087.406264,-0.555018,205874.000000,738957.000000
1091.066513,-0.554843,205797.000000,738383.000000
1094.722362,-0.556641,205514.000000,740428.000000
1098.373811,-0.556514,205628.000000,740621.000000
1103.235565,-0.554853,206788.000000,741957.000000
1106.876747,-0.556150,206389.000000,742740.000000
1110.513529,-0.556099,206615.000000,743466.000000
1114.145910,-0.556297,206738.000000,744248.000000
1117.773892,-0.557608,206547.000000,745807.000000
1121.397473,-0.556812,207088.000000,746392.000000
1125.016654,-0.558263,206464.000000,746634.000000
1129.835385,-0.557452,207418.000000,748684.000000
1133.444299,-0.557018,207695.000000,748935.000000
1137.048813,-0.555319,208493.000000,748877.000000
1140.648927,-0.556332,208223.000000,749654.000000
1144.244641,-0.555721,208337.000000,749010.000000
1147.835955,-0.553972,208774.000000,747564.000000
1152.617529,-0.554654,208238.000000,746816.000000
1156.198576,-0.554892,208484.000000,748108.000000
1159.775223,-0.553165,208962.000000,746849.000000
1163.347470,-0.552406,209317.000000,746811.000000
1166.915316,-0.551382,209935.000000,747251.000000
1170.478763,-0.549476,211435.000000,749295.000000
1174.037809,-0.546443,213105.000000,749957.000000
1178.776359,-0.543685,214394.000000,749718.000000
1182.325139,-0.537211,217962.000000,750916.000000
1185.869518,-0.533606,220075.000000,751929.000000
1189.409497,-0.530787,222694.000000,755955.000000
1192.945076,-0.528861,224594.000000,759030.000000
1196.476255,-0.527307,226828.000000,763843.000000
1200.003034,-0.524578,229675.000000,768585.000000
1204.698561,-0.523790,232729.000000,777392.000000
1208.215073,-0.522531,235830.000000,785470.000000
1211.727185,-0.521920,238631.000000,793682.000000
1215.234896,-0.519990,241974.000000,801232.000000
1218.738208,-0.519828,245450.000000,812439.000000
1222.237119,-0.519298,248996.000000,823172.000000
1226.895489,-0.518786,254001.000000,838728.000000
1230.384134,-0.519250,257796.000000,852170.000000
1233.868378,-0.520315,261030.000000,864979.000000
1237.348222,-0.521634,264910.000000,880507.000000
1240.823666,-0.522261,269187.000000,896014.000000
1244.294710,-0.521313,274535.000000,911824.000000
1247.761354,-0.523243,278817.000000,930170.000000
1252.376701,-0.523325,285943.000000,954123.000000
1255.833078,-0.522809,292339.000000,974307.000000
1259.285055,-0.522442,298387.000000,993623.000000
1262.732632,-0.523037,303484.000000,1011982.000000
1266.175808,-0.524003,308643.000000,1031476.000000
1269.614584,-0.523446,313923.000000,1047777.000000
1273.048961,-0.523381,319097.000000,1064888.000000
1277.621284,-0.524119,324380.000000,1084359.000000
1281.045394,-0.523532,329793.000000,1100964.000000
1284.465103,-0.525496,333450.000000,1118218.000000
1287.880412,-0.526840,337104.000000,1133976.000000
1291.291321,-0.527904,340768.000000,1149114.000000
1294.697830,-0.527743,344605.000000,1161622.000000
1299.232997,-0.528712,349244.000000,1179889.000000
1302.629239,-0.528797,352441.000000,1190923.000000
1306.021081,-0.528631,355144.000000,1199598.000000
1309.408522,-0.527756,357732.000000,1205907.000000
1312.791564,-0.527888,360160.000000,1214462.000000
1316.170205,-0.528173,362173.000000,1222049.000000
1319.544447,-0.527768,364403.000000,1228430.000000
1324.036591,-0.527503,366317.000000,1234127.000000
1327.400565,-0.528297,366589.000000,1237303.000000
1330.760139,-0.526557,368623.000000,1239195.000000
1334.115313,-0.526885,368498.000000,1239711.000000
1337.466087,-0.524954,370046.000000,1239396.000000
1340.812461,-0.523755,370709.000000,1238193.000000
1344.154435,-0.521605,371502.000000,1234712.000000
1348.603555,-0.519079,371615.000000,1227927.000000
1351.935262,-0.517058,370997.000000,1220192.000000
1355.262569,-0.512369,371791.000000,1209672.000000
1358.585475,-0.509673,370879.000000,1199237.000000
1361.903982,-0.506281,370539.000000,1188816.000000
1365.218088,-0.500841,371657.000000,1177561.000000
1369.630052,-0.497325,372397.000000,1170391.000000
1372.933891,-0.493891,372524.000000,1161569.000000
1376.233331,-0.491905,372314.000000,1155617.000000
1379.528370,-0.490232,371243.000000,1147863.000000
1382.819009,-0.489828,369231.000000,1140582.000000
1386.105248,-0.488599,367705.000000,1132658.000000
1389.387087,-0.486397,367073.000000,1124992.000000
1393.756027,-0.483156,365715.000000,1112497.000000
1397.027599,-0.479586,365152.000000,1101690.000000
1400.294771,-0.475537,365097.000000,1091303.000000
1403.557542,-0.470859,364333.000000,1077352.000000
1406.815914,-0.462808,365413.000000,1060699.000000
1410.069885,-0.455052,365734.000000,1042840.000000
1413.319456,-0.447818,364947.000000,1023406.000000
1417.645373,-0.435320,365539.000000,995986.000000
1420.884678,-0.427445,365230.000000,977262.000000
1424.119582,-0.418518,365533.000000,958175.000000
1427.350086,-0.411328,364906.000000,940826.000000
1430.576190,-0.403785,365583.000000,926342.000000
1433.797894,-0.398237,365648.000000,914745.000000
1437.015198,-0.392415,365698.000000,902687.000000
1441.298091,-0.387176,364890.000000,889894.000000
1444.505128,-0.383863,364741.000000,882770.000000
1447.707765,-0.380394,364393.000000,874911.000000
1450.906001,-0.377798,363044.000000,866477.000000
1454.099838,-0.374031,362635.000000,858026.000000
1457.289274,-0.371218,361653.000000,850178.000000
1461.535011,-0.365577,360303.000000,836074.000000
1464.714180,-0.363129,358064.000000,826208.000000
1467.888950,-0.359656,356949.000000,817075.000000
1471.059319,-0.354506,355912.000000,805097.000000
1474.225288,-0.351360,353737.000000,794403.000000
1477.386857,-0.346628,352477.000000,782994.000000
1480.544025,-0.345260,349693.000000,774368.000000
1484.746739,-0.341478,347943.000000,763811.000000
1487.893641,-0.341797,344781.000000,757427.000000
1491.036142,-0.340912,342531.000000,750951.000000
1494.174244,-0.341288,340170.000000,746421.000000
1497.307945,-0.341299,337701.000000,741023.000000
1500.437247,-0.343905,334446.000000,738297.000000
1503.562148,-0.345765,331876.000000,735768.000000
1507.721838,-0.347486,327918.000000,729879.000000
1510.836473,-0.348423,324967.000000,724873.000000
1513.946707,-0.350520,321718.000000,721100.000000
1517.052541,-0.351216,319073.000000,716319.000000
1520.153975,-0.352957,315575.000000,711311.000000
1523.251008,-0.354870,311252.000000,704664.000000
1527.373542,-0.353891,306492.000000,692326.000000
1530.460309,-0.354631,302471.000000,684407.000000
1533.542676,-0.354165,298873.000000,675541.000000
1536.620642,-0.354235,294593.000000,665974.000000
1539.694209,-0.354802,290524.000000,657634.000000
1542.763375,-0.355390,285805.000000,647828.000000
1545.828141,-0.353915,281854.000000,636707.000000
1549.907652,-0.357195,274841.000000,625571.000000
1552.962151,-0.358148,270515.000000,617077.000000
1556.012250,-0.359450,265203.000000,606776.000000
1559.057949,-0.361761,260042.000000,598142.000000
1562.099248,-0.361509,255973.000000,588441.000000
1565.136147,-0.363922,250523.000000,579122.000000
1568.168646,-0.364303,245616.000000,568277.000000
1572.205133,-0.366591,238774.000000,555365.000000
1575.227365,-0.365894,234179.000000,543803.000000
1578.245196,-0.368007,228934.000000,534216.000000
1581.258628,-0.368898,223478.000000,522556.000000
1584.267659,-0.370365,218239.000000,512032.000000
1587.272290,-0.370728,213357.000000,500997.000000
1591.271621,-0.375322,206678.000000,490474.000000
1594.265985,-0.379318,200655.000000,480583.000000
1597.255949,-0.381368,196105.000000,471907.000000
1600.241513,-0.386374,191413.000000,465957.000000
1603.222677,-0.391260,186271.000000,458570.000000
1606.199441,-0.393896,181567.000000,449710.000000
1609.171805,-0.398694,176656.000000,442407.000000
1613.128112,-0.405625,170106.000000,432857.000000
1616.090209,-0.409685,165195.000000,424309.000000
1619.047905,-0.413070,160661.000000,415892.000000
1622.001202,-0.420179,154762.000000,407233.000000
1624.950098,-0.426922,149284.000000,398965.000000
1627.894595,-0.431047,144304.000000,389337.000000
1630.834691,-0.437951,138573.000000,379865.000000
1634.747975,-0.446040,131373.000000,366899.000000
1637.677804,-0.453291,126061.000000,357991.000000
1640.603233,-0.462463,120043.000000,348177.000000
1643.524262,-0.471536,114222.000000,338287.000000
1646.440891,-0.475491,109595.000000,327553.000000
1649.353120,-0.484135,104146.000000,317525.000000
1653.229247,-0.470941,102337.000000,302673.000000
1656.131209,-0.462086,100118.000000,290134.000000
1659.028770,-0.464564,95076.000000,277099.000000
1661.921932,-0.446945,93881.000000,262738.000000
1664.810693,-0.436607,90392.000000,247023.000000
1667.695055,-0.423097,85969.000000,227740.000000
1670.575016,-0.399813,82225.000000,206451.000000
1674.408120,-0.346342,78925.000000,175209.000000
1677.277814,-inf,0.000000,150879.000000
1680.143108,-inf,0.000000,128304.000000
1683.004002,nan,-2147483648.000000,107021.000000
1685.860496,nan,-2147483648.000000,87775.000000
1688.712590,nan,-2147483648.000000,73827.000000
1691.560283,nan,-2147483648.000000,61866.000000
1695.350364,nan,-2147483648.000000,48634.000000
1698.187790,nan,-2147483648.000000,40514.000000
1701.020817,-inf,0.000000,35172.000000
