Method:,erol,,
Host Date-Time:,7/12/23 @ 13:24:34,,
Header Version:,1,,
System Temp (C):,25.54,,
Detector Temp (C):,4.15,,
Humidity (%):,40.28,,
Lamp PD:,3677,,
Shift Vector Coefficients:,-4.80707,0.053312,-0.000138677,,
Pixel to Wavelength Coefficients:,1763.6,-0.910608,-0.000244451,,
Serial Number:,6110061,,
Scan Config Name:,erol,,
Scan Config Type:,Slew,,
Section 1,,
Start wavelength (nm):,900,,
End wavelength (nm):,1700,,
Pattern Pixel Width (nm):,  11.71,,,,
Exposure (ms):,  0.635,,,,
Digital Resolution:,228,,
Num Repeats:,1,,
PGA Gain:,64,,
Total Measurement Time in sec:,  1.657,,
Wavelength (nm),Absorbance (AU),Reference Signal (unitless),Sample Signal (unitless)
901.370984,-0.687107,22318.000000,108583.000000
905.248306,-0.669836,26694.000000,124810.000000
909.121227,-0.669074,30240.000000,141142.000000
912.989749,-0.644198,35053.000000,154498.000000
918.140932,-0.643487,39668.000000,174553.000000
921.999187,-0.639336,44171.000000,192519.000000
925.853041,-0.637206,49463.000000,214529.000000
929.702495,-0.642053,55176.000000,241993.000000
933.547549,-0.638834,62603.000000,272539.000000
937.388203,-0.632154,70557.000000,302478.000000
941.224457,-0.619077,79215.000000,329522.000000
946.332618,-0.606280,90003.000000,363527.000000
950.158605,-0.600442,97001.000000,386561.000000
953.980191,-0.592416,104340.000000,408194.000000
957.797378,-0.588272,111157.000000,430734.000000
961.610165,-0.585880,117414.000000,452480.000000
965.418551,-0.582412,124361.000000,475441.000000
969.222537,-0.579057,131496.000000,498850.000000
974.287675,-0.576568,140925.000000,531564.000000
978.081394,-0.575514,148023.000000,556984.000000
981.870713,-0.573995,155197.000000,581940.000000
985.655632,-0.572669,162010.000000,605635.000000
989.436151,-0.569305,170019.000000,630671.000000
993.212270,-0.568982,176266.000000,653357.000000
998.240251,-0.566307,184964.000000,681388.000000
1002.006103,-0.565220,190519.000000,700097.000000
1005.767554,-0.563118,196102.000000,717134.000000
1009.524606,-0.562190,200098.000000,730185.000000
1013.277258,-0.560082,204164.000000,741414.000000
1017.025509,-0.559804,206631.000000,749894.000000
1020.769360,-0.558539,209246.000000,757174.000000
1025.754318,-0.556595,211932.000000,763470.000000
1029.487902,-0.554965,213316.000000,765577.000000
1033.217086,-0.554496,213821.000000,766560.000000
1036.941870,-0.555237,213615.000000,767130.000000
1040.662255,-0.553478,213930.000000,765156.000000
1044.378238,-0.552497,213905.000000,763340.000000
1048.089822,-0.552157,213173.000000,760133.000000
1053.031756,-0.552748,211884.000000,756565.000000
1056.733073,-0.551644,211098.000000,751844.000000
1060.429990,-0.551491,209880.000000,747244.000000
1064.122506,-0.551545,209078.000000,744480.000000
1067.810623,-0.551367,208224.000000,741136.000000
1071.494339,-0.552640,206922.000000,738664.000000
1076.399116,-0.551664,206676.000000,736129.000000
1080.072566,-0.552265,206200.000000,735451.000000
1083.741615,-0.553144,205636.000000,734926.000000
1087.406264,-0.552473,205874.000000,734640.000000
1091.066513,-0.552041,205797.000000,733635.000000
1094.722362,-0.553739,205514.000000,735496.000000
1098.373811,-0.554200,205628.000000,736685.000000
1103.235565,-0.552347,206788.000000,737687.000000
1106.876747,-0.554043,206389.000000,739144.000000
1110.513529,-0.553655,206615.000000,739293.000000
1114.145910,-0.553505,206738.000000,739478.000000
1117.773892,-0.554942,206547.000000,741243.000000
1121.397473,-0.554261,207088.000000,742021.000000
1125.016654,-0.556297,206464.000000,743261.000000
1129.835385,-0.553959,207418.000000,742687.000000
1133.444299,-0.554193,207695.000000,744079.000000
1137.048813,-0.553057,208493.000000,744986.000000
1140.648927,-0.553356,208223.000000,744534.000000
1144.244641,-0.552001,208337.000000,742622.000000
1147.835955,-0.551286,208774.000000,742955.000000
1152.617529,-0.552153,208238.000000,742528.000000
1156.198576,-0.551466,208484.000000,742230.000000
1159.775223,-0.550409,208962.000000,742124.000000
1163.347470,-0.548446,209317.000000,740032.000000
1166.915316,-0.547869,209935.000000,741232.000000
1170.478763,-0.544571,211435.000000,740880.000000
1174.037809,-0.541291,213105.000000,741114.000000
1178.776359,-0.539570,214394.000000,742648.000000
1182.325139,-0.533384,217962.000000,744328.000000
1185.869518,-0.530232,220075.000000,746109.000000
1189.409497,-0.526683,222694.000000,748844.000000
1192.945076,-0.525268,224594.000000,752776.000000
1196.476255,-0.523132,226828.000000,756535.000000
1200.003034,-0.521308,229675.000000,762819.000000
1204.698561,-0.520395,232729.000000,771340.000000
1208.215073,-0.519065,235830.000000,779227.000000
1211.727185,-0.518686,238631.000000,787795.000000
1215.234896,-0.517663,241974.000000,796951.000000
1218.738208,-0.517020,245450.000000,807204.000000
1222.237119,-0.516437,248996.000000,817766.000000
1226.895489,-0.516079,254001.000000,833517.000000
1230.384134,-0.516956,257796.000000,847681.000000
1233.868378,-0.518963,261030.000000,862291.000000
1237.348222,-0.519827,264910.000000,876850.000000
1240.823666,-0.520483,269187.000000,892353.000000
1244.294710,-0.519646,274535.000000,908330.000000
1247.761354,-0.520988,278817.000000,925352.000000
1252.376701,-0.521364,285943.000000,949824.000000
1255.833078,-0.521182,292339.000000,970664.000000
1259.285055,-0.520879,298387.000000,990054.000000
1262.732632,-0.521748,303484.000000,1008983.000000
1266.175808,-0.521765,308643.000000,1026175.000000
1269.614584,-0.522285,313923.000000,1044981.000000
1273.048961,-0.521283,319097.000000,1059756.000000
1277.621284,-0.523833,324380.000000,1083645.000000
1281.045394,-0.522703,329793.000000,1098865.000000
1284.465103,-0.524545,333450.000000,1115772.000000
1287.880412,-0.525216,337104.000000,1129743.000000
1291.291321,-0.526264,340768.000000,1144782.000000
1294.697830,-0.527241,344605.000000,1160280.000000
1299.232997,-0.527122,349244.000000,1175577.000000
1302.629239,-0.527951,352441.000000,1188604.000000
1306.021081,-0.527838,355144.000000,1197409.000000
1309.408522,-0.526985,357732.000000,1203768.000000
1312.791564,-0.527104,360160.000000,1212271.000000
1316.170205,-0.527042,362173.000000,1218871.000000
1319.544447,-0.526893,364403.000000,1225957.000000
1324.036591,-0.526991,366317.000000,1232674.000000
1327.400565,-0.527626,366589.000000,1235393.000000
1330.760139,-0.525550,368623.000000,1236324.000000
1334.115313,-0.526021,368498.000000,1237246.000000
1337.466087,-0.523759,370046.000000,1235989.000000
1340.812461,-0.522992,370709.000000,1236018.000000
1344.154435,-0.521183,371502.000000,1233513.000000
1348.603555,-0.518306,371615.000000,1225742.000000
1351.935262,-0.516236,370997.000000,1217885.000000
1355.262569,-0.511864,371791.000000,1208267.000000
1358.585475,-0.509086,370879.000000,1197618.000000
1361.903982,-0.505393,370539.000000,1186388.000000
1365.218088,-0.500450,371657.000000,1176501.000000
1369.630052,-0.495864,372397.000000,1166461.000000
1372.933891,-0.492916,372524.000000,1158964.000000
1376.233331,-0.491042,372314.000000,1153325.000000
1379.528370,-0.489487,371243.000000,1145897.000000
1382.819009,-0.489177,369231.000000,1138873.000000
1386.105248,-0.487781,367705.000000,1130527.000000
1389.387087,-0.485611,367073.000000,1122959.000000
1393.756027,-0.482683,365715.000000,1111285.000000
1397.027599,-0.478979,365152.000000,1100153.000000
1400.294771,-0.474351,365097.000000,1088327.000000
1403.557542,-0.469378,364333.000000,1073684.000000
1406.815914,-0.461938,365413.000000,1058576.000000
1410.069885,-0.454229,365734.000000,1040866.000000
1413.319456,-0.446853,364947.000000,1021133.000000
1417.645373,-0.434149,365539.000000,993306.000000
1420.884678,-0.425163,365230.000000,972141.000000
1424.119582,-0.416868,365533.000000,954542.000000
1427.350086,-0.409678,364906.000000,937258.000000
1430.576190,-0.402339,365583.000000,923262.000000
1433.797894,-0.395968,365648.000000,909978.000000
1437.015198,-0.389717,365698.000000,897098.000000
1441.298091,-0.385365,364890.000000,886191.000000
1444.505128,-0.381565,364741.000000,878112.000000
1447.707765,-0.377239,364393.000000,868578.000000
1450.906001,-0.375158,363044.000000,861227.000000
1454.099838,-0.371554,362635.000000,853147.000000
1457.289274,-0.368033,361653.000000,843966.000000
1461.535011,-0.363980,360303.000000,833006.000000
1464.714180,-0.360692,358064.000000,821586.000000
1467.888950,-0.356200,356949.000000,810600.000000
1471.059319,-0.351201,355912.000000,798995.000000
1474.225288,-0.347851,353737.000000,788010.000000
1477.386857,-0.343613,352477.000000,777577.000000
1480.544025,-0.342366,349693.000000,769225.000000
1484.746739,-0.337922,347943.000000,757583.000000
1487.893641,-0.338206,344781.000000,751189.000000
1491.036142,-0.337481,342531.000000,745043.000000
1494.174244,-0.337972,340170.000000,740744.000000
1497.307945,-0.338294,337701.000000,735913.000000
1500.437247,-0.339963,334446.000000,731626.000000
1503.562148,-0.341114,331876.000000,727931.000000
1507.721838,-0.344036,327918.000000,724104.000000
1510.836473,-0.344798,324967.000000,718849.000000
1513.946707,-0.347664,321718.000000,716373.000000
1517.052541,-0.347470,319073.000000,710167.000000
1520.153975,-0.348833,315575.000000,704588.000000
1523.251008,-0.350632,311252.000000,697821.000000
1527.373542,-0.351142,306492.000000,687957.000000
1530.460309,-0.350596,302471.000000,678078.000000
1533.542676,-0.350447,298873.000000,669783.000000
1536.620642,-0.349786,294593.000000,659186.000000
1539.694209,-0.349833,290524.000000,650152.000000
1542.763375,-0.350559,285805.000000,640662.000000
1545.828141,-0.350505,281854.000000,631727.000000
1549.907652,-0.352809,274841.000000,619285.000000
1552.962151,-0.353326,270515.000000,610263.000000
1556.012250,-0.355238,265203.000000,600919.000000
1559.057949,-0.357247,260042.000000,591958.000000
1562.099248,-0.356523,255973.000000,581724.000000
1565.136147,-0.358273,250523.000000,571637.000000
1568.168646,-0.358420,245616.000000,560631.000000
1572.205133,-0.360194,238774.000000,547244.000000
1575.227365,-0.359267,234179.000000,535568.000000
1578.245196,-0.361307,228934.000000,526038.000000
1581.258628,-0.362034,223478.000000,514362.000000
1584.267659,-0.363096,218239.000000,503533.000000
1587.272290,-0.363952,213357.000000,493241.000000
1591.271621,-0.365971,206678.000000,480027.000000
1594.265985,-0.371301,200655.000000,471792.000000
1597.255949,-0.373515,196105.000000,463451.000000
1600.241513,-0.376739,191413.000000,455733.000000
1603.222677,-0.380426,186271.000000,447272.000000
1606.199441,-0.384006,181567.000000,439585.000000
1609.171805,-0.388333,176656.000000,431978.000000
1613.128112,-0.393037,170106.000000,420491.000000
1616.090209,-0.397687,165195.000000,412747.000000
1619.047905,-0.400800,160661.000000,404306.000000
1622.001202,-0.407549,154762.000000,395561.000000
1624.950098,-0.413886,149284.000000,387168.000000
1627.894595,-0.418105,144304.000000,377906.000000
1630.834691,-0.424154,138573.000000,367987.000000
1634.747975,-0.433104,131373.000000,356131.000000
1637.677804,-0.437362,126061.000000,345098.000000
1640.603233,-0.446415,120043.000000,335546.000000
1643.524262,-0.454725,114222.000000,325443.000000
1646.440891,-0.458368,109595.000000,314890.000000
1649.353120,-0.466465,104146.000000,304865.000000
1653.229247,-0.453400,102337.000000,290692.000000
1656.131209,-0.442591,100118.000000,277398.000000
1659.028770,-0.443331,95076.000000,263877.000000
1661.921932,-0.420371,93881.000000,247143.000000
1664.810693,-0.403104,90392.000000,228683.000000
1667.695055,-0.384950,85969.000000,208589.000000
1670.575016,-0.354563,82225.000000,186023.000000
1674.408120,-0.289931,78925.000000,153867.000000
1677.277814,-inf,0.000000,130208.000000
1680.143108,-inf,0.000000,109456.000000
1683.004002,nan,-2147483648.000000,90429.000000
1685.860496,nan,-2147483648.000000,75337.000000
1688.712590,nan,-2147483648.000000,62835.000000
1691.560283,nan,-2147483648.000000,54139.000000
1695.350364,nan,-2147483648.000000,42618.000000
1698.187790,nan,-2147483648.000000,35703.000000
1701.020817,-inf,0.000000,30761.000000
