Method:,erol,,
Host Date-Time:,7/12/23 @ 13:28:47,,
Header Version:,1,,
System Temp (C):,30.13,,
Detector Temp (C):,11.67,,
Humidity (%):,33.34,,
Lamp PD:,3669,,
Shift Vector Coefficients:,-4.80707,0.053312,-0.000138677,,
Pixel to Wavelength Coefficients:,1763.6,-0.910608,-0.000244451,,
Serial Number:,6110061,,
Scan Config Name:,erol,,
Scan Config Type:,Slew,,
Section 1,,
Start wavelength (nm):,900,,
End wavelength (nm):,1700,,
Pattern Pixel Width (nm):,  11.71,,,,
Exposure (ms):,  0.635,,,,
Digital Resolution:,228,,
Num Repeats:,1,,
PGA Gain:,64,,
Total Measurement Time in sec:,  1.593,,
Wavelength (nm),Absorbance (AU),Reference Signal (unitless),Sample Signal (unitless)
901.370984,-0.677661,22318.000000,106247.000000
905.248306,-0.663739,26694.000000,123070.000000
909.121227,-0.654341,30240.000000,136434.000000
912.989749,-0.632101,35053.000000,150254.000000
918.140932,-0.629102,39668.000000,168866.000000
921.999187,-0.627294,44171.000000,187254.000000
925.853041,-0.625803,49463.000000,208970.000000
929.702495,-0.629755,55176.000000,235237.000000
933.547549,-0.623349,62603.000000,262993.000000
937.388203,-0.617495,70557.000000,292439.000000
941.224457,-0.606947,79215.000000,320446.000000
946.332618,-0.594506,90003.000000,353804.000000
950.158605,-0.590073,97001.000000,377441.000000
953.980191,-0.581556,104340.000000,398113.000000
957.797378,-0.578196,111157.000000,420855.000000
961.610165,-0.576870,117414.000000,443190.000000
965.418551,-0.572660,124361.000000,464884.000000
969.222537,-0.570937,131496.000000,489609.000000
974.287675,-0.569386,140925.000000,522846.000000
978.081394,-0.568674,148023.000000,548281.000000
981.870713,-0.567014,155197.000000,572660.000000
985.655632,-0.566400,162010.000000,596956.000000
989.436151,-0.562906,170019.000000,621446.000000
993.212270,-0.563876,176266.000000,645721.000000
998.240251,-0.561602,184964.000000,674045.000000
1002.006103,-0.560414,190519.000000,692393.000000
1005.767554,-0.558280,196102.000000,709189.000000
1009.524606,-0.557900,200098.000000,723008.000000
1013.277258,-0.556696,204164.000000,735656.000000
1017.025509,-0.555945,206631.000000,743259.000000
1020.769360,-0.553910,209246.000000,749147.000000
1025.754318,-0.553220,211932.000000,757559.000000
1029.487902,-0.551306,213316.000000,759153.000000
1033.217086,-0.550726,213821.000000,759935.000000
1036.941870,-0.551294,213615.000000,760196.000000
1040.662255,-0.550754,213930.000000,760371.000000
1044.378238,-0.548939,213905.000000,757112.000000
1048.089822,-0.549012,213173.000000,754647.000000
1053.031756,-0.548493,211884.000000,749189.000000
1056.733073,-0.548133,211098.000000,745791.000000
1060.429990,-0.548292,209880.000000,741759.000000
1064.122506,-0.547384,209078.000000,737381.000000
1067.810623,-0.547925,208224.000000,735285.000000
1071.494339,-0.548398,206922.000000,731484.000000
1076.399116,-0.548086,206676.000000,730090.000000
1080.072566,-0.549061,206200.000000,730045.000000
1083.741615,-0.548701,205636.000000,727445.000000
1087.406264,-0.548298,205874.000000,727612.000000
1091.066513,-0.547376,205797.000000,725796.000000
1094.722362,-0.549216,205514.000000,727876.000000
1098.373811,-0.549300,205628.000000,728421.000000
1103.235565,-0.547561,206788.000000,729602.000000
1106.876747,-0.548962,206389.000000,730547.000000
1110.513529,-0.549302,206615.000000,731920.000000
1114.145910,-0.548796,206738.000000,731503.000000
1117.773892,-0.550064,206547.000000,732965.000000
1121.397473,-0.548520,207088.000000,732277.000000
1125.016654,-0.550963,206464.000000,734188.000000
1129.835385,-0.548725,207418.000000,733790.000000
1133.444299,-0.548819,207695.000000,734929.000000
1137.048813,-0.546975,208493.000000,734626.000000
1140.648927,-0.547326,208223.000000,734268.000000
1144.244641,-0.547015,208337.000000,734145.000000
1147.835955,-0.545492,208774.000000,733109.000000
1152.617529,-0.545403,208238.000000,731076.000000
1156.198576,-0.545371,208484.000000,731887.000000
1159.775223,-0.544031,208962.000000,731305.000000
1163.347470,-0.542990,209317.000000,730794.000000
1166.915316,-0.541968,209935.000000,731228.000000
1170.478763,-0.539328,211435.000000,731989.000000
1174.037809,-0.536070,213105.000000,732258.000000
1178.776359,-0.534686,214394.000000,734342.000000
1182.325139,-0.527308,217962.000000,733987.000000
1185.869518,-0.524847,220075.000000,736916.000000
1189.409497,-0.520936,222694.000000,739000.000000
1192.945076,-0.518817,224594.000000,741678.000000
1196.476255,-0.517054,226828.000000,746020.000000
1200.003034,-0.515460,229675.000000,752616.000000
1204.698561,-0.514186,232729.000000,760390.000000
1208.215073,-0.512521,235830.000000,767573.000000
1211.727185,-0.512006,238631.000000,775770.000000
1215.234896,-0.511452,241974.000000,785635.000000
1218.738208,-0.510758,245450.000000,795648.000000
1222.237119,-0.509583,248996.000000,804962.000000
1226.895489,-0.510084,254001.000000,822090.000000
1230.384134,-0.509646,257796.000000,833531.000000
1233.868378,-0.511721,261030.000000,848030.000000
1237.348222,-0.512961,264910.000000,863096.000000
1240.823666,-0.513379,269187.000000,877875.000000
1244.294710,-0.512754,274535.000000,894029.000000
1247.761354,-0.514328,278817.000000,911270.000000
1252.376701,-0.515024,285943.000000,936060.000000
1255.833078,-0.514096,292339.000000,954954.000000
1259.285055,-0.514513,298387.000000,975647.000000
1262.732632,-0.514827,303484.000000,993031.000000
1266.175808,-0.515282,308643.000000,1010970.000000
1269.614584,-0.515134,313923.000000,1027915.000000
1273.048961,-0.515298,319097.000000,1045252.000000
1277.621284,-0.516814,324380.000000,1066271.000000
1281.045394,-0.515939,329793.000000,1081884.000000
1284.465103,-0.517165,333450.000000,1096973.000000
1287.880412,-0.518666,337104.000000,1112834.000000
1291.291321,-0.519591,340768.000000,1127326.000000
1294.697830,-0.520097,344605.000000,1141348.000000
1299.232997,-0.520323,349244.000000,1157316.000000
1302.629239,-0.520408,352441.000000,1168139.000000
1306.021081,-0.520720,355144.000000,1177943.000000
1309.408522,-0.520346,357732.000000,1185507.000000
1312.791564,-0.520167,360160.000000,1193061.000000
1316.170205,-0.520633,362173.000000,1201018.000000
1319.544447,-0.519738,364403.000000,1205924.000000
1324.036591,-0.519745,366317.000000,1212278.000000
1327.400565,-0.520586,366589.000000,1215529.000000
1330.760139,-0.518029,368623.000000,1215099.000000
1334.115313,-0.519093,368498.000000,1217666.000000
1337.466087,-0.517031,370046.000000,1216988.000000
1340.812461,-0.515705,370709.000000,1215454.000000
1344.154435,-0.513607,371502.000000,1212184.000000
1348.603555,-0.510895,371615.000000,1205002.000000
1351.935262,-0.509252,370997.000000,1198457.000000
1355.262569,-0.504710,371791.000000,1188526.000000
1358.585475,-0.502699,370879.000000,1180134.000000
1361.903982,-0.498590,370539.000000,1167949.000000
1365.218088,-0.494240,371657.000000,1159798.000000
1369.630052,-0.489338,372397.000000,1149063.000000
1372.933891,-0.486982,372524.000000,1143237.000000
1376.233331,-0.484438,372314.000000,1135920.000000
1379.528370,-0.482764,371243.000000,1128295.000000
1382.819009,-0.482338,369231.000000,1121078.000000
1386.105248,-0.481042,367705.000000,1113119.000000
1389.387087,-0.478458,367073.000000,1104615.000000
1393.756027,-0.474692,365715.000000,1091025.000000
1397.027599,-0.471149,365152.000000,1080496.000000
1400.294771,-0.465928,365097.000000,1067422.000000
1403.557542,-0.461472,364333.000000,1054315.000000
1406.815914,-0.453451,365413.000000,1038089.000000
1410.069885,-0.445584,365734.000000,1020351.000000
1413.319456,-0.438398,364947.000000,1001446.000000
1417.645373,-0.425823,365539.000000,974443.000000
1420.884678,-0.418064,365230.000000,956381.000000
1424.119582,-0.409590,365533.000000,938677.000000
1427.350086,-0.403266,364906.000000,923521.000000
1430.576190,-0.396081,365583.000000,910054.000000
1433.797894,-0.390216,365648.000000,898006.000000
1437.015198,-0.385246,365698.000000,887909.000000
1441.298091,-0.380875,364890.000000,877076.000000
1444.505128,-0.376911,364741.000000,868751.000000
1447.707765,-0.374483,364393.000000,863083.000000
1450.906001,-0.371962,363044.000000,854912.000000
1454.099838,-0.368196,362635.000000,846575.000000
1457.289274,-0.365033,361653.000000,838156.000000
1461.535011,-0.360605,360303.000000,826557.000000
1464.714180,-0.358223,358064.000000,816927.000000
1467.888950,-0.353977,356949.000000,806460.000000
1471.059319,-0.349843,355912.000000,796500.000000
1474.225288,-0.347265,353737.000000,786947.000000
1477.386857,-0.343187,352477.000000,776816.000000
1480.544025,-0.341743,349693.000000,768122.000000
1484.746739,-0.338533,347943.000000,758650.000000
1487.893641,-0.338509,344781.000000,751713.000000
1491.036142,-0.337867,342531.000000,745705.000000
1494.174244,-0.337828,340170.000000,740499.000000
1497.307945,-0.338604,337701.000000,736439.000000
1500.437247,-0.340416,334446.000000,732389.000000
1503.562148,-0.342673,331876.000000,730548.000000
1507.721838,-0.344608,327918.000000,725059.000000
1510.836473,-0.346516,324967.000000,721698.000000
1513.946707,-0.348068,321718.000000,717040.000000
1517.052541,-0.348531,319073.000000,711903.000000
1520.153975,-0.350108,315575.000000,706660.000000
1523.251008,-0.352746,311252.000000,701227.000000
1527.373542,-0.352721,306492.000000,690463.000000
1530.460309,-0.352996,302471.000000,681836.000000
1533.542676,-0.351850,298873.000000,671950.000000
1536.620642,-0.351359,294593.000000,661578.000000
1539.694209,-0.351603,290524.000000,652808.000000
1542.763375,-0.352573,285805.000000,643639.000000
1545.828141,-0.352625,281854.000000,634818.000000
1549.907652,-0.355684,274841.000000,623398.000000
1552.962151,-0.356339,270515.000000,614512.000000
1556.012250,-0.358668,265203.000000,605685.000000
1559.057949,-0.361060,260042.000000,597177.000000
1562.099248,-0.359073,255973.000000,585150.000000
1565.136147,-0.360691,250523.000000,574829.000000
1568.168646,-0.361343,245616.000000,564417.000000
1572.205133,-0.363625,238774.000000,551585.000000
1575.227365,-0.363631,234179.000000,540977.000000
1578.245196,-0.364870,228934.000000,530372.000000
1581.258628,-0.366493,223478.000000,519670.000000
1584.267659,-0.367221,218239.000000,508339.000000
1587.272290,-0.368129,213357.000000,498008.000000
1591.271621,-0.371004,206678.000000,485622.000000
1594.265985,-0.374930,200655.000000,475751.000000
1597.255949,-0.377766,196105.000000,468009.000000
1600.241513,-0.381029,191413.000000,460257.000000
1603.222677,-0.385316,186271.000000,452336.000000
1606.199441,-0.389299,181567.000000,444975.000000
1609.171805,-0.392444,176656.000000,436086.000000
1613.128112,-0.398234,170106.000000,425553.000000
1616.090209,-0.402830,165195.000000,417664.000000
1619.047905,-0.405857,160661.000000,409042.000000
1622.001202,-0.413173,154762.000000,400717.000000
1624.950098,-0.419210,149284.000000,391943.000000
1627.894595,-0.423434,144304.000000,382571.000000
1630.834691,-0.431462,138573.000000,374232.000000
1634.747975,-0.439180,131373.000000,361149.000000
1637.677804,-0.444822,126061.000000,351077.000000
1640.603233,-0.454078,120043.000000,341519.000000
1643.524262,-0.463666,114222.000000,332212.000000
1646.440891,-0.468806,109595.000000,322550.000000
1649.353120,-0.475866,104146.000000,311536.000000
1653.229247,-0.462440,102337.000000,296806.000000
1656.131209,-0.453550,100118.000000,284487.000000
1659.028770,-0.457638,95076.000000,272715.000000
1661.921932,-0.440049,93881.000000,258599.000000
1664.810693,-0.428519,90392.000000,242465.000000
1667.695055,-0.417143,85969.000000,224639.000000
1670.575016,-0.391925,82225.000000,202735.000000
1674.408120,-0.338952,78925.000000,172253.000000
1677.277814,-inf,0.000000,148891.000000
1680.143108,-inf,0.000000,125059.000000
1683.004002,nan,-2147483648.000000,104912.000000
1685.860496,nan,-2147483648.000000,86800.000000
1688.712590,nan,-2147483648.000000,73081.000000
1691.560283,nan,-2147483648.000000,60061.000000
1695.350364,nan,-2147483648.000000,48475.000000
1698.187790,nan,-2147483648.000000,40972.000000
1701.020817,-inf,0.000000,33112.000000
