Method:,erol,,
Host Date-Time:,7/12/23 @ 13:24:42,,
Header Version:,1,,
System Temp (C):,25.76,,
Detector Temp (C):,5.24,,
Humidity (%):,40.06,,
Lamp PD:,3676,,
Shift Vector Coefficients:,-4.80707,0.053312,-0.000138677,,
Pixel to Wavelength Coefficients:,1763.6,-0.910608,-0.000244451,,
Serial Number:,6110061,,
Scan Config Name:,erol,,
Scan Config Type:,Slew,,
Section 1,,
Start wavelength (nm):,900,,
End wavelength (nm):,1700,,
Pattern Pixel Width (nm):,  11.71,,,,
Exposure (ms):,  0.635,,,,
Digital Resolution:,228,,
Num Repeats:,1,,
PGA Gain:,64,,
Total Measurement Time in sec:,  1.657,,
Wavelength (nm),Absorbance (AU),Reference Signal (unitless),Sample Signal (unitless)
901.370984,-0.674189,22318.000000,105401.000000
905.248306,-0.665742,26694.000000,123639.000000
909.121227,-0.656380,30240.000000,137076.000000
912.989749,-0.638573,35053.000000,152510.000000
918.140932,-0.632264,39668.000000,170100.000000
921.999187,-0.632440,44171.000000,189486.000000
925.853041,-0.629615,49463.000000,210812.000000
929.702495,-0.635399,55176.000000,238314.000000
933.547549,-0.629845,62603.000000,266956.000000
937.388203,-0.623896,70557.000000,296781.000000
941.224457,-0.612608,79215.000000,324650.000000
946.332618,-0.599483,90003.000000,357882.000000
950.158605,-0.592935,97001.000000,379937.000000
953.980191,-0.585911,104340.000000,402126.000000
957.797378,-0.581016,111157.000000,423597.000000
961.610165,-0.577818,117414.000000,444158.000000
965.418551,-0.574180,124361.000000,466513.000000
969.222537,-0.572370,131496.000000,491227.000000
974.287675,-0.568420,140925.000000,521685.000000
978.081394,-0.567903,148023.000000,547309.000000
981.870713,-0.566745,155197.000000,572306.000000
985.655632,-0.566985,162010.000000,597760.000000
989.436151,-0.562268,170019.000000,620534.000000
993.212270,-0.563639,176266.000000,645368.000000
998.240251,-0.560601,184964.000000,672494.000000
1002.006103,-0.560131,190519.000000,691941.000000
1005.767554,-0.558089,196102.000000,708878.000000
1009.524606,-0.556200,200098.000000,720183.000000
1013.277258,-0.555420,204164.000000,733499.000000
1017.025509,-0.554912,206631.000000,741494.000000
1020.769360,-0.552689,209246.000000,747044.000000
1025.754318,-0.551529,211932.000000,754615.000000
1029.487902,-0.550078,213316.000000,757010.000000
1033.217086,-0.549180,213821.000000,757235.000000
1036.941870,-0.549590,213615.000000,757220.000000
1040.662255,-0.548472,213930.000000,756387.000000
1044.378238,-0.547298,213905.000000,754257.000000
1048.089822,-0.547023,213173.000000,751200.000000
1053.031756,-0.547090,211884.000000,746773.000000
1056.733073,-0.545754,211098.000000,741717.000000
1060.429990,-0.546220,209880.000000,738229.000000
1064.122506,-0.546273,209078.000000,735497.000000
1067.810623,-0.544812,208224.000000,730034.000000
1071.494339,-0.546917,206922.000000,728994.000000
1076.399116,-0.545978,206676.000000,726554.000000
1080.072566,-0.546178,206200.000000,725215.000000
1083.741615,-0.546525,205636.000000,723809.000000
1087.406264,-0.545248,205874.000000,722520.000000
1091.066513,-0.544464,205797.000000,720947.000000
1094.722362,-0.546127,205514.000000,722717.000000
1098.373811,-0.547311,205628.000000,725092.000000
1103.235565,-0.544420,206788.000000,724344.000000
1106.876747,-0.545835,206389.000000,725307.000000
1110.513529,-0.545388,206615.000000,725353.000000
1114.145910,-0.545829,206738.000000,726523.000000
1117.773892,-0.545877,206547.000000,725932.000000
1121.397473,-0.546189,207088.000000,728356.000000
1125.016654,-0.547583,206464.000000,728496.000000
1129.835385,-0.546340,207418.000000,729770.000000
1133.444299,-0.546181,207695.000000,730478.000000
1137.048813,-0.545509,208493.000000,732150.000000
1140.648927,-0.546648,208223.000000,733122.000000
1144.244641,-0.545656,208337.000000,731851.000000
1147.835955,-0.544650,208774.000000,731689.000000
1152.617529,-0.545909,208238.000000,731929.000000
1156.198576,-0.544649,208484.000000,730670.000000
1159.775223,-0.544070,208962.000000,731370.000000
1163.347470,-0.543380,209317.000000,731450.000000
1166.915316,-0.541767,209935.000000,730889.000000
1170.478763,-0.540365,211435.000000,733739.000000
1174.037809,-0.536854,213105.000000,733580.000000
1178.776359,-0.534784,214394.000000,734509.000000
1182.325139,-0.528841,217962.000000,736583.000000
1185.869518,-0.526016,220075.000000,738901.000000
1189.409497,-0.522647,222694.000000,741917.000000
1192.945076,-0.519933,224594.000000,743586.000000
1196.476255,-0.518244,226828.000000,748067.000000
1200.003034,-0.516075,229675.000000,753683.000000
1204.698561,-0.515667,232729.000000,762987.000000
1208.215073,-0.513906,235830.000000,770026.000000
1211.727185,-0.512909,238631.000000,777384.000000
1215.234896,-0.511600,241974.000000,785903.000000
1218.738208,-0.510899,245450.000000,795907.000000
1222.237119,-0.510752,248996.000000,807131.000000
1226.895489,-0.510499,254001.000000,822876.000000
1230.384134,-0.510739,257796.000000,835632.000000
1233.868378,-0.512165,261030.000000,848897.000000
1237.348222,-0.513230,264910.000000,863631.000000
1240.823666,-0.513550,269187.000000,878222.000000
1244.294710,-0.512524,274535.000000,893555.000000
1247.761354,-0.514666,278817.000000,911979.000000
1252.376701,-0.514620,285943.000000,935189.000000
1255.833078,-0.514081,292339.000000,954921.000000
1259.285055,-0.513487,298387.000000,973346.000000
1262.732632,-0.514028,303484.000000,991206.000000
1266.175808,-0.514415,308643.000000,1008955.000000
1269.614584,-0.514130,313923.000000,1025542.000000
1273.048961,-0.514555,319097.000000,1043464.000000
1277.621284,-0.516086,324380.000000,1064486.000000
1281.045394,-0.515173,329793.000000,1079976.000000
1284.465103,-0.516269,333450.000000,1094712.000000
1287.880412,-0.517891,337104.000000,1110849.000000
1291.291321,-0.518494,340768.000000,1124483.000000
1294.697830,-0.519213,344605.000000,1139029.000000
1299.232997,-0.519912,349244.000000,1156221.000000
1302.629239,-0.520250,352441.000000,1167713.000000
1306.021081,-0.520136,355144.000000,1176360.000000
1309.408522,-0.519236,357732.000000,1182479.000000
1312.791564,-0.519330,360160.000000,1190764.000000
1316.170205,-0.519706,362173.000000,1198456.000000
1319.544447,-0.519302,364403.000000,1204713.000000
1324.036591,-0.519306,366317.000000,1211054.000000
1327.400565,-0.520198,366589.000000,1214444.000000
1330.760139,-0.517825,368623.000000,1214528.000000
1334.115313,-0.518681,368498.000000,1216512.000000
1337.466087,-0.517045,370046.000000,1217028.000000
1340.812461,-0.515938,370709.000000,1216106.000000
1344.154435,-0.513501,371502.000000,1211888.000000
1348.603555,-0.511285,371615.000000,1206085.000000
1351.935262,-0.509239,370997.000000,1198421.000000
1355.262569,-0.505137,371791.000000,1189697.000000
1358.585475,-0.502766,370879.000000,1180316.000000
1361.903982,-0.499018,370539.000000,1169102.000000
1365.218088,-0.494660,371657.000000,1160919.000000
1369.630052,-0.489788,372397.000000,1150256.000000
1372.933891,-0.487215,372524.000000,1143850.000000
1376.233331,-0.485134,372314.000000,1137742.000000
1379.528370,-0.484041,371243.000000,1131617.000000
1382.819009,-0.483462,369231.000000,1123984.000000
1386.105248,-0.482378,367705.000000,1116548.000000
1389.387087,-0.479728,367073.000000,1107848.000000
1393.756027,-0.477041,365715.000000,1096942.000000
1397.027599,-0.473724,365152.000000,1086921.000000
1400.294771,-0.469284,365097.000000,1075703.000000
1403.557542,-0.464958,364333.000000,1062811.000000
1406.815914,-0.456846,365413.000000,1046237.000000
1410.069885,-0.450323,365734.000000,1031546.000000
1413.319456,-0.443129,364947.000000,1012416.000000
1417.645373,-0.430850,365539.000000,985788.000000
1420.884678,-0.422610,365230.000000,966443.000000
1424.119582,-0.413610,365533.000000,947407.000000
1427.350086,-0.406984,364906.000000,931461.000000
1430.576190,-0.400497,365583.000000,919355.000000
1433.797894,-0.393805,365648.000000,905457.000000
1437.015198,-0.388565,365698.000000,894721.000000
1441.298091,-0.384199,364890.000000,883814.000000
1444.505128,-0.380542,364741.000000,876045.000000
1447.707765,-0.376678,364393.000000,867457.000000
1450.906001,-0.374177,363044.000000,859284.000000
1454.099838,-0.371054,362635.000000,852165.000000
1457.289274,-0.367605,361653.000000,843135.000000
1461.535011,-0.362441,360303.000000,830059.000000
1464.714180,-0.359612,358064.000000,819544.000000
1467.888950,-0.355370,356949.000000,809051.000000
1471.059319,-0.351120,355912.000000,798846.000000
1474.225288,-0.347970,353737.000000,788226.000000
1477.386857,-0.344123,352477.000000,778491.000000
1480.544025,-0.341449,349693.000000,767601.000000
1484.746739,-0.337690,347943.000000,757179.000000
1487.893641,-0.337787,344781.000000,750464.000000
1491.036142,-0.337237,342531.000000,744624.000000
1494.174244,-0.336991,340170.000000,739073.000000
1497.307945,-0.338326,337701.000000,735967.000000
1500.437247,-0.340329,334446.000000,732243.000000
1503.562148,-0.340735,331876.000000,727296.000000
1507.721838,-0.342671,327918.000000,721832.000000
1510.836473,-0.344415,324967.000000,718215.000000
1513.946707,-0.346572,321718.000000,714575.000000
1517.052541,-0.346991,319073.000000,709383.000000
1520.153975,-0.348153,315575.000000,703487.000000
1523.251008,-0.350365,311252.000000,697393.000000
1527.373542,-0.350089,306492.000000,686291.000000
1530.460309,-0.350309,302471.000000,677630.000000
1533.542676,-0.349866,298873.000000,668887.000000
1536.620642,-0.349233,294593.000000,658348.000000
1539.694209,-0.349245,290524.000000,649272.000000
1542.763375,-0.350623,285805.000000,640756.000000
1545.828141,-0.349513,281854.000000,630286.000000
1549.907652,-0.352137,274841.000000,618327.000000
1552.962151,-0.353442,270515.000000,610426.000000
1556.012250,-0.354817,265203.000000,600338.000000
1559.057949,-0.356978,260042.000000,591591.000000
1562.099248,-0.357237,255973.000000,582682.000000
1565.136147,-0.357763,250523.000000,570967.000000
1568.168646,-0.358550,245616.000000,560798.000000
1572.205133,-0.361270,238774.000000,548601.000000
1575.227365,-0.360926,234179.000000,537618.000000
1578.245196,-0.362910,228934.000000,527984.000000
1581.258628,-0.364970,223478.000000,517851.000000
1584.267659,-0.366188,218239.000000,507131.000000
1587.272290,-0.367486,213357.000000,497271.000000
1591.271621,-0.369268,206678.000000,483685.000000
1594.265985,-0.374679,200655.000000,475476.000000
1597.255949,-0.376943,196105.000000,467123.000000
1600.241513,-0.380272,191413.000000,459455.000000
1603.222677,-0.385572,186271.000000,452603.000000
1606.199441,-0.388891,181567.000000,444557.000000
1609.171805,-0.393453,176656.000000,437101.000000
1613.128112,-0.399240,170106.000000,426540.000000
1616.090209,-0.404039,165195.000000,418828.000000
1619.047905,-0.407391,160661.000000,410489.000000
1622.001202,-0.414553,154762.000000,401992.000000
1624.950098,-0.421428,149284.000000,393950.000000
1627.894595,-0.426091,144304.000000,384919.000000
1630.834691,-0.433570,138573.000000,376053.000000
1634.747975,-0.442217,131373.000000,363683.000000
1637.677804,-0.447651,126061.000000,353372.000000
1640.603233,-0.456678,120043.000000,343570.000000
1643.524262,-0.465664,114222.000000,333744.000000
1646.440891,-0.469683,109595.000000,323202.000000
1649.353120,-0.479034,104146.000000,313817.000000
1653.229247,-0.462314,102337.000000,296720.000000
1656.131209,-0.455038,100118.000000,285463.000000
1659.028770,-0.452391,95076.000000,269440.000000
1661.921932,-0.433296,93881.000000,254609.000000
1664.810693,-0.417016,90392.000000,236127.000000
1667.695055,-0.398668,85969.000000,215283.000000
1670.575016,-0.369431,82225.000000,192502.000000
1674.408120,-0.306267,78925.000000,159765.000000
1677.277814,-inf,0.000000,136516.000000
1680.143108,-inf,0.000000,112743.000000
1683.004002,nan,-2147483648.000000,94370.000000
1685.860496,nan,-2147483648.000000,77772.000000
1688.712590,nan,-2147483648.000000,64887.000000
1691.560283,nan,-2147483648.000000,55549.000000
1695.350364,nan,-2147483648.000000,44094.000000
1698.187790,nan,-2147483648.000000,36750.000000
1701.020817,-inf,0.000000,31195.000000
