Method:,erol,,
Host Date-Time:,7/12/23 @ 13:39:3,,
Header Version:,1,,
System Temp (C):,35.81,,
Detector Temp (C):,17.65,,
Humidity (%):,26.26,,
Lamp PD:,3646,,
Shift Vector Coefficients:,-4.80707,0.053312,-0.000138677,,
Pixel to Wavelength Coefficients:,1763.6,-0.910608,-0.000244451,,
Serial Number:,6110061,,
Scan Config Name:,erol,,
Scan Config Type:,Slew,,
Section 1,,
Start wavelength (nm):,900,,
End wavelength (nm):,1700,,
Pattern Pixel Width (nm):,  11.71,,,,
Exposure (ms):,  0.635,,,,
Digital Resolution:,228,,
Num Repeats:,1,,
PGA Gain:,64,,
Total Measurement Time in sec:,  1.642,,
Wavelength (nm),Absorbance (AU),Reference Signal (unitless),Sample Signal (unitless)
901.370984,-0.735971,22318.000000,121514.000000
905.248306,-0.727404,26694.000000,142501.000000
909.121227,-0.717943,30240.000000,157952.000000
912.989749,-0.692859,35053.000000,172816.000000
918.140932,-0.690386,39668.000000,194458.000000
921.999187,-0.682941,44171.000000,212852.000000
925.853041,-0.680636,49463.000000,237092.000000
929.702495,-0.682100,55176.000000,265369.000000
933.547549,-0.675970,62603.000000,296869.000000
937.388203,-0.672110,70557.000000,331627.000000
941.224457,-0.663293,79215.000000,364838.000000
946.332618,-0.652751,90003.000000,404583.000000
950.158605,-0.649631,97001.000000,432920.000000
953.980191,-0.642137,104340.000000,457707.000000
957.797378,-0.638797,111157.000000,483876.000000
961.610165,-0.636163,117414.000000,508022.000000
965.418551,-0.633235,124361.000000,534465.000000
969.222537,-0.630617,131496.000000,561733.000000
974.287675,-0.627850,140925.000000,598189.000000
978.081394,-0.626070,148023.000000,625748.000000
981.870713,-0.624337,155197.000000,653462.000000
985.655632,-0.624467,162010.000000,682353.000000
989.436151,-0.620779,170019.000000,710030.000000
993.212270,-0.620055,176266.000000,734892.000000
998.240251,-0.617529,184964.000000,766684.000000
1002.006103,-0.616339,190519.000000,787549.000000
1005.767554,-0.613407,196102.000000,805173.000000
1009.524606,-0.612651,200098.000000,820150.000000
1013.277258,-0.610171,204164.000000,832052.000000
1017.025509,-0.610155,206631.000000,842075.000000
1020.769360,-0.608665,209246.000000,849810.000000
1025.754318,-0.606446,211932.000000,856333.000000
1029.487902,-0.604124,213316.000000,857329.000000
1033.217086,-0.604141,213821.000000,859393.000000
1036.941870,-0.603600,213615.000000,857496.000000
1040.662255,-0.603170,213930.000000,857910.000000
1044.378238,-0.601595,213905.000000,854705.000000
1048.089822,-0.601197,213173.000000,851000.000000
1053.031756,-0.600636,211884.000000,844761.000000
1056.733073,-0.599689,211098.000000,839794.000000
1060.429990,-0.599516,209880.000000,834616.000000
1064.122506,-0.599556,209078.000000,831504.000000
1067.810623,-0.598631,208224.000000,826345.000000
1071.494339,-0.599694,206922.000000,823191.000000
1076.399116,-0.598620,206676.000000,820181.000000
1080.072566,-0.598179,206200.000000,817463.000000
1083.741615,-0.599786,205636.000000,818249.000000
1087.406264,-0.598401,205874.000000,816588.000000
1091.066513,-0.598069,205797.000000,815658.000000
1094.722362,-0.599977,205514.000000,818122.000000
1098.373811,-0.599897,205628.000000,818426.000000
1103.235565,-0.597812,206788.000000,819100.000000
1106.876747,-0.598656,206389.000000,819110.000000
1110.513529,-0.598633,206615.000000,819965.000000
1114.145910,-0.598826,206738.000000,820817.000000
1117.773892,-0.598988,206547.000000,820365.000000
1121.397473,-0.598960,207088.000000,822460.000000
1125.016654,-0.599374,206464.000000,820764.000000
1129.835385,-0.598375,207418.000000,822662.000000
1133.444299,-0.598353,207695.000000,823719.000000
1137.048813,-0.595822,208493.000000,822078.000000
1140.648927,-0.596408,208223.000000,822122.000000
1144.244641,-0.595322,208337.000000,820519.000000
1147.835955,-0.593698,208774.000000,819170.000000
1152.617529,-0.594010,208238.000000,817655.000000
1156.198576,-0.592145,208484.000000,815113.000000
1159.775223,-0.590598,208962.000000,814076.000000
1163.347470,-0.589741,209317.000000,813852.000000
1166.915316,-0.587472,209935.000000,812002.000000
1170.478763,-0.584101,211435.000000,811480.000000
1174.037809,-0.580153,213105.000000,810488.000000
1178.776359,-0.577165,214394.000000,809799.000000
1182.325139,-0.569126,217962.000000,808178.000000
1185.869518,-0.565146,220075.000000,808569.000000
1189.409497,-0.559668,222694.000000,807935.000000
1192.945076,-0.556990,224594.000000,809819.000000
1196.476255,-0.554195,226828.000000,812627.000000
1200.003034,-0.552206,229675.000000,819067.000000
1204.698561,-0.550680,232729.000000,827047.000000
1208.215073,-0.550318,235830.000000,837369.000000
1211.727185,-0.548631,238631.000000,844030.000000
1215.234896,-0.548789,241974.000000,856166.000000
1218.738208,-0.549388,245450.000000,869663.000000
1222.237119,-0.549900,248996.000000,883268.000000
1226.895489,-0.551660,254001.000000,904680.000000
1230.384134,-0.552398,257796.000000,919759.000000
1233.868378,-0.554203,261030.000000,935177.000000
1237.348222,-0.555496,264910.000000,951906.000000
1240.823666,-0.556645,269187.000000,969837.000000
1244.294710,-0.556607,274535.000000,989019.000000
1247.761354,-0.558190,278817.000000,1008112.000000
1252.376701,-0.559299,285943.000000,1036522.000000
1255.833078,-0.559002,292339.000000,1058982.000000
1259.285055,-0.558422,298387.000000,1079449.000000
1262.732632,-0.559453,303484.000000,1100498.000000
1266.175808,-0.559093,308643.000000,1118278.000000
1269.614584,-0.559258,313923.000000,1137841.000000
1273.048961,-0.558638,319097.000000,1154943.000000
1277.621284,-0.560043,324380.000000,1177868.000000
1281.045394,-0.559826,329793.000000,1196926.000000
1284.465103,-0.561087,333450.000000,1213719.000000
1287.880412,-0.562555,337104.000000,1231173.000000
1291.291321,-0.563026,340768.000000,1245904.000000
1294.697830,-0.563329,344605.000000,1260812.000000
1299.232997,-0.564124,349244.000000,1280128.000000
1302.629239,-0.564092,352441.000000,1291751.000000
1306.021081,-0.563956,355144.000000,1301248.000000
1309.408522,-0.563654,357732.000000,1309821.000000
1312.791564,-0.563472,360160.000000,1318159.000000
1316.170205,-0.563848,362173.000000,1326674.000000
1319.544447,-0.563276,364403.000000,1333084.000000
1324.036591,-0.563183,366317.000000,1339801.000000
1327.400565,-0.564215,366589.000000,1343985.000000
1330.760139,-0.562368,368623.000000,1345708.000000
1334.115313,-0.562940,368498.000000,1347024.000000
1337.466087,-0.560713,370046.000000,1345764.000000
1340.812461,-0.559982,370709.000000,1345906.000000
1344.154435,-0.557747,371502.000000,1341864.000000
1348.603555,-0.554770,371615.000000,1333103.000000
1351.935262,-0.552578,370997.000000,1324185.000000
1355.262569,-0.547928,371791.000000,1312887.000000
1358.585475,-0.544790,370879.000000,1300237.000000
1361.903982,-0.540953,370539.000000,1287618.000000
1365.218088,-0.535634,371657.000000,1275782.000000
1369.630052,-0.529732,372397.000000,1261068.000000
1372.933891,-0.526460,372524.000000,1252030.000000
1376.233331,-0.523798,372314.000000,1243676.000000
1379.528370,-0.521487,371243.000000,1233518.000000
1382.819009,-0.520039,369231.000000,1222749.000000
1386.105248,-0.518912,367705.000000,1214539.000000
1389.387087,-0.516472,367073.000000,1205658.000000
1393.756027,-0.514452,365715.000000,1195625.000000
1397.027599,-0.511259,365152.000000,1185039.000000
1400.294771,-0.507163,365097.000000,1173739.000000
1403.557542,-0.503250,364333.000000,1160777.000000
1406.815914,-0.496463,365413.000000,1146165.000000
1410.069885,-0.489636,365734.000000,1129280.000000
1413.319456,-0.483618,364947.000000,1111342.000000
1417.645373,-0.473089,365539.000000,1086482.000000
1420.884678,-0.465836,365230.000000,1067585.000000
1424.119582,-0.458010,365533.000000,1049390.000000
1427.350086,-0.452435,364906.000000,1034227.000000
1430.576190,-0.445681,365583.000000,1020156.000000
1433.797894,-0.441073,365648.000000,1009570.000000
1437.015198,-0.436672,365698.000000,999528.000000
1441.298091,-0.432696,364890.000000,988230.000000
1444.505128,-0.429919,364741.000000,981531.000000
1447.707765,-0.426152,364393.000000,972125.000000
1450.906001,-0.424160,363044.000000,964093.000000
1454.099838,-0.421089,362635.000000,956221.000000
1457.289274,-0.418353,361653.000000,947644.000000
1461.535011,-0.413813,360303.000000,934289.000000
1464.714180,-0.411601,358064.000000,923766.000000
1467.888950,-0.407236,356949.000000,911679.000000
1471.059319,-0.402995,355912.000000,900198.000000
1474.225288,-0.399031,353737.000000,886566.000000
1477.386857,-0.394890,352477.000000,875025.000000
1480.544025,-0.393338,349693.000000,865017.000000
1484.746739,-0.389280,347943.000000,852684.000000
1487.893641,-0.389891,344781.000000,846125.000000
1491.036142,-0.388480,342531.000000,837877.000000
1494.174244,-0.388638,340170.000000,832403.000000
1497.307945,-0.388421,337701.000000,825950.000000
1500.437247,-0.389869,334446.000000,820720.000000
1503.562148,-0.390244,331876.000000,815117.000000
1507.721838,-0.391561,327918.000000,807842.000000
1510.836473,-0.391647,324967.000000,800731.000000
1513.946707,-0.393446,321718.000000,796016.000000
1517.052541,-0.393466,319073.000000,789507.000000
1520.153975,-0.394633,315575.000000,782952.000000
1523.251008,-0.395752,311252.000000,774220.000000
1527.373542,-0.395015,306492.000000,761086.000000
1530.460309,-0.394467,302471.000000,750155.000000
1533.542676,-0.393670,298873.000000,739873.000000
1536.620642,-0.393222,294593.000000,728525.000000
1539.694209,-0.393829,290524.000000,719467.000000
1542.763375,-0.394538,285805.000000,708938.000000
1545.828141,-0.395909,281854.000000,701347.000000
1549.907652,-0.400276,274841.000000,690808.000000
1552.962151,-0.400786,270515.000000,680734.000000
1556.012250,-0.403565,265203.000000,671650.000000
1559.057949,-0.405921,260042.000000,662162.000000
1562.099248,-0.404648,255973.000000,649894.000000
1565.136147,-0.406690,250523.000000,639054.000000
1568.168646,-0.406827,245616.000000,626735.000000
1572.205133,-0.407930,238774.000000,610825.000000
1575.227365,-0.408439,234179.000000,599773.000000
1578.245196,-0.410502,228934.000000,589132.000000
1581.258628,-0.410820,223478.000000,575512.000000
1584.267659,-0.413093,218239.000000,564970.000000
1587.272290,-0.414829,213357.000000,554544.000000
1591.271621,-0.416576,206678.000000,539350.000000
1594.265985,-0.420865,200655.000000,528829.000000
1597.255949,-0.423513,196105.000000,519998.000000
1600.241513,-0.426886,191413.000000,511514.000000
1603.222677,-0.429974,186271.000000,501325.000000
1606.199441,-0.434065,181567.000000,493289.000000
1609.171805,-0.438994,176656.000000,485425.000000
1613.128112,-0.444568,170106.000000,473465.000000
1616.090209,-0.449240,165195.000000,464769.000000
1619.047905,-0.453629,160661.000000,456604.000000
1622.001202,-0.460125,154762.000000,446467.000000
1624.950098,-0.467430,149284.000000,437969.000000
1627.894595,-0.472978,144304.000000,428802.000000
1630.834691,-0.478156,138573.000000,416711.000000
1634.747975,-0.487846,131373.000000,403973.000000
1637.677804,-0.493636,126061.000000,392841.000000
1640.603233,-0.502452,120043.000000,381759.000000
1643.524262,-0.512394,114222.000000,371658.000000
1646.440891,-0.516661,109595.000000,360124.000000
1649.353120,-0.524736,104146.000000,348641.000000
1653.229247,-0.512284,102337.000000,332902.000000
1656.131209,-0.506620,100118.000000,321464.000000
1659.028770,-0.512239,95076.000000,309250.000000
1661.921932,-0.496845,93881.000000,294729.000000
1664.810693,-0.489787,90392.000000,279201.000000
1667.695055,-0.485701,85969.000000,263053.000000
1670.575016,-0.474618,82225.000000,245257.000000
1674.408120,-0.435026,78925.000000,214902.000000
1677.277814,-inf,0.000000,190428.000000
1680.143108,-inf,0.000000,165726.000000
1683.004002,nan,-2147483648.000000,141865.000000
1685.860496,nan,-2147483648.000000,118989.000000
1688.712590,nan,-2147483648.000000,98412.000000
1691.560283,nan,-2147483648.000000,82080.000000
1695.350364,nan,-2147483648.000000,63868.000000
1698.187790,nan,-2147483648.000000,52917.000000
1701.020817,-inf,0.000000,44416.000000
