Method:,erol,,
Host Date-Time:,7/12/23 @ 13:37:20,,
Header Version:,1,,
System Temp (C):,34.76,,
Detector Temp (C):,17.91,,
Humidity (%):,27,,
Lamp PD:,3643,,
Shift Vector Coefficients:,-4.80707,0.053312,-0.000138677,,
Pixel to Wavelength Coefficients:,1763.6,-0.910608,-0.000244451,,
Serial Number:,6110061,,
Scan Config Name:,erol,,
Scan Config Type:,Slew,,
Section 1,,
Start wavelength (nm):,900,,
End wavelength (nm):,1700,,
Pattern Pixel Width (nm):,  11.71,,,,
Exposure (ms):,  0.635,,,,
Digital Resolution:,228,,
Num Repeats:,1,,
PGA Gain:,64,,
Total Measurement Time in sec:,  1.593,,
Wavelength (nm),Absorbance (AU),Reference Signal (unitless),Sample Signal (unitless)
901.370984,-0.749867,22318.000000,125465.000000
905.248306,-0.737901,26694.000000,145987.000000
909.121227,-0.731067,30240.000000,162798.000000
912.989749,-0.704263,35053.000000,177414.000000
918.140932,-0.700971,39668.000000,199256.000000
921.999187,-0.695257,44171.000000,218975.000000
925.853041,-0.692871,49463.000000,243866.000000
929.702495,-0.694342,55176.000000,272956.000000
933.547549,-0.689301,62603.000000,306123.000000
937.388203,-0.682976,70557.000000,340029.000000
941.224457,-0.674028,79215.000000,373969.000000
946.332618,-0.662711,90003.000000,413969.000000
950.158605,-0.659123,97001.000000,442486.000000
953.980191,-0.652630,104340.000000,468901.000000
957.797378,-0.648894,111157.000000,495257.000000
961.610165,-0.647115,117414.000000,520997.000000
965.418551,-0.643217,124361.000000,546892.000000
969.222537,-0.639325,131496.000000,573109.000000
974.287675,-0.637729,140925.000000,611952.000000
978.081394,-0.636152,148023.000000,640444.000000
981.870713,-0.634512,155197.000000,668953.000000
985.655632,-0.634137,162010.000000,697716.000000
989.436151,-0.629981,170019.000000,725234.000000
993.212270,-0.629759,176266.000000,751497.000000
998.240251,-0.627273,184964.000000,784079.000000
1002.006103,-0.625661,190519.000000,804635.000000
1005.767554,-0.623010,196102.000000,823175.000000
1009.524606,-0.622834,200098.000000,839608.000000
1013.277258,-0.620096,204164.000000,851286.000000
1017.025509,-0.619617,206631.000000,860623.000000
1020.769360,-0.617919,209246.000000,868113.000000
1025.754318,-0.615734,211932.000000,874843.000000
1029.487902,-0.614090,213316.000000,877230.000000
1033.217086,-0.613248,213821.000000,877604.000000
1036.941870,-0.613080,213615.000000,876419.000000
1040.662255,-0.611904,213930.000000,875337.000000
1044.378238,-0.610424,213905.000000,872258.000000
1048.089822,-0.610358,213173.000000,869141.000000
1053.031756,-0.609399,211884.000000,861980.000000
1056.733073,-0.608660,211098.000000,857323.000000
1060.429990,-0.608529,209880.000000,852119.000000
1064.122506,-0.608111,209078.000000,848045.000000
1067.810623,-0.607812,208224.000000,844000.000000
1071.494339,-0.608673,206922.000000,840388.000000
1076.399116,-0.607907,206676.000000,837910.000000
1080.072566,-0.607957,206200.000000,836076.000000
1083.741615,-0.609483,205636.000000,836724.000000
1087.406264,-0.608657,205874.000000,836100.000000
1091.066513,-0.607839,205797.000000,834216.000000
1094.722362,-0.609351,205514.000000,835974.000000
1098.373811,-0.609669,205628.000000,837049.000000
1103.235565,-0.607783,206788.000000,838124.000000
1106.876747,-0.608738,206389.000000,838349.000000
1110.513529,-0.608947,206615.000000,839670.000000
1114.145910,-0.609570,206738.000000,841376.000000
1117.773892,-0.610598,206547.000000,842592.000000
1121.397473,-0.609376,207088.000000,842424.000000
1125.016654,-0.611193,206464.000000,843407.000000
1129.835385,-0.608968,207418.000000,842975.000000
1133.444299,-0.609321,207695.000000,844787.000000
1137.048813,-0.606241,208493.000000,842039.000000
1140.648927,-0.607562,208223.000000,843511.000000
1144.244641,-0.606176,208337.000000,841283.000000
1147.835955,-0.604344,208774.000000,839499.000000
1152.617529,-0.604143,208238.000000,836956.000000
1156.198576,-0.602392,208484.000000,834573.000000
1159.775223,-0.600318,208962.000000,832503.000000
1163.347470,-0.599057,209317.000000,831499.000000
1166.915316,-0.596856,209935.000000,829737.000000
1170.478763,-0.593506,211435.000000,829245.000000
1174.037809,-0.589351,213105.000000,827836.000000
1178.776359,-0.585941,214394.000000,826330.000000
1182.325139,-0.577559,217962.000000,824024.000000
1185.869518,-0.573173,220075.000000,823652.000000
1189.409497,-0.567872,222694.000000,823342.000000
1192.945076,-0.565433,224594.000000,825716.000000
1196.476255,-0.562773,226828.000000,828838.000000
1200.003034,-0.559146,229675.000000,832262.000000
1204.698561,-0.558239,232729.000000,841569.000000
1208.215073,-0.557327,235830.000000,850993.000000
1211.727185,-0.556693,238631.000000,859844.000000
1215.234896,-0.556958,241974.000000,872423.000000
1218.738208,-0.557069,245450.000000,885180.000000
1222.237119,-0.558157,248996.000000,900221.000000
1226.895489,-0.558842,254001.000000,919766.000000
1230.384134,-0.560202,257796.000000,936437.000000
1233.868378,-0.562088,261030.000000,952310.000000
1237.348222,-0.563787,264910.000000,970254.000000
1240.823666,-0.565159,269187.000000,989038.000000
1244.294710,-0.565038,274535.000000,1008407.000000
1247.761354,-0.566907,278817.000000,1028553.000000
1252.376701,-0.567882,285943.000000,1057211.000000
1255.833078,-0.567230,292339.000000,1079238.000000
1259.285055,-0.567281,298387.000000,1101694.000000
1262.732632,-0.567826,303484.000000,1121919.000000
1266.175808,-0.568547,308643.000000,1142887.000000
1269.614584,-0.567899,313923.000000,1160707.000000
1273.048961,-0.567351,319097.000000,1178349.000000
1277.621284,-0.569360,324380.000000,1203411.000000
1281.045394,-0.568583,329793.000000,1221305.000000
1284.465103,-0.569929,333450.000000,1238682.000000
1287.880412,-0.571233,337104.000000,1256022.000000
1291.291321,-0.572286,340768.000000,1272755.000000
1294.697830,-0.572206,344605.000000,1286849.000000
1299.232997,-0.573309,349244.000000,1307488.000000
1302.629239,-0.573414,352441.000000,1319776.000000
1306.021081,-0.573199,355144.000000,1329239.000000
1309.408522,-0.573055,357732.000000,1338483.000000
1312.791564,-0.572879,360160.000000,1347022.000000
1316.170205,-0.573158,362173.000000,1355421.000000
1319.544447,-0.572306,364403.000000,1361095.000000
1324.036591,-0.572353,366317.000000,1368391.000000
1327.400565,-0.573253,366589.000000,1372248.000000
1330.760139,-0.570993,368623.000000,1372698.000000
1334.115313,-0.571760,368498.000000,1374658.000000
1337.466087,-0.569760,370046.000000,1374092.000000
1340.812461,-0.568598,370709.000000,1372874.000000
1344.154435,-0.566329,371502.000000,1368644.000000
1348.603555,-0.563813,371615.000000,1361151.000000
1351.935262,-0.561452,370997.000000,1351519.000000
1355.262569,-0.556934,371791.000000,1340396.000000
1358.585475,-0.554137,370879.000000,1328523.000000
1361.903982,-0.550307,370539.000000,1315653.000000
1365.218088,-0.544768,371657.000000,1302897.000000
1369.630052,-0.539241,372397.000000,1288983.000000
1372.933891,-0.535886,372524.000000,1279500.000000
1376.233331,-0.532534,372314.000000,1268946.000000
1379.528370,-0.530127,371243.000000,1258302.000000
1382.819009,-0.529123,369231.000000,1248594.000000
1386.105248,-0.528187,367705.000000,1240757.000000
1389.387087,-0.525603,367073.000000,1231277.000000
1393.756027,-0.522993,365715.000000,1219372.000000
1397.027599,-0.519779,365152.000000,1208516.000000
1400.294771,-0.515919,365097.000000,1197644.000000
1403.557542,-0.511951,364333.000000,1184268.000000
1406.815914,-0.505375,365413.000000,1169928.000000
1410.069885,-0.498431,365734.000000,1152382.000000
1413.319456,-0.492849,364947.000000,1135216.000000
1417.645373,-0.482224,365539.000000,1109578.000000
1420.884678,-0.474933,365230.000000,1090183.000000
1424.119582,-0.467739,365533.000000,1073162.000000
1427.350086,-0.462116,364906.000000,1057540.000000
1430.576190,-0.455100,365583.000000,1042524.000000
1433.797894,-0.450690,365648.000000,1032174.000000
1437.015198,-0.445561,365698.000000,1020196.000000
1441.298091,-0.441333,364890.000000,1008081.000000
1444.505128,-0.438752,364741.000000,1001697.000000
1447.707765,-0.435726,364393.000000,993794.000000
1450.906001,-0.433939,363044.000000,986048.000000
1454.099838,-0.430988,362635.000000,978267.000000
1457.289274,-0.427669,361653.000000,968192.000000
1461.535011,-0.423711,360303.000000,955827.000000
1464.714180,-0.421221,358064.000000,944455.000000
1467.888950,-0.416560,356949.000000,931465.000000
1471.059319,-0.411876,355912.000000,918794.000000
1474.225288,-0.408834,353737.000000,906807.000000
1477.386857,-0.404129,352477.000000,893840.000000
1480.544025,-0.402656,349693.000000,883777.000000
1484.746739,-0.398990,347943.000000,871964.000000
1487.893641,-0.399038,344781.000000,864134.000000
1491.036142,-0.397475,342531.000000,855412.000000
1494.174244,-0.398033,340170.000000,850608.000000
1497.307945,-0.398225,337701.000000,844806.000000
1500.437247,-0.399432,334446.000000,838993.000000
1503.562148,-0.399904,331876.000000,833451.000000
1507.721838,-0.400584,327918.000000,824801.000000
1510.836473,-0.401974,324967.000000,819998.000000
1513.946707,-0.402956,321718.000000,813638.000000
1517.052541,-0.403054,319073.000000,807131.000000
1520.153975,-0.403693,315575.000000,799458.000000
1523.251008,-0.404664,311252.000000,790271.000000
1527.373542,-0.404744,306492.000000,778328.000000
1530.460309,-0.403788,302471.000000,766429.000000
1533.542676,-0.402831,298873.000000,755645.000000
1536.620642,-0.403082,294593.000000,745254.000000
1539.694209,-0.403069,290524.000000,734938.000000
1542.763375,-0.404209,285805.000000,724901.000000
1545.828141,-0.405006,281854.000000,716194.000000
1549.907652,-0.409005,274841.000000,704834.000000
1552.962151,-0.410735,270515.000000,696509.000000
1556.012250,-0.412967,265203.000000,686350.000000
1559.057949,-0.415752,260042.000000,677322.000000
1562.099248,-0.413911,255973.000000,663904.000000
1565.136147,-0.415045,250523.000000,651468.000000
1568.168646,-0.415410,245616.000000,639244.000000
1572.205133,-0.416794,238774.000000,623420.000000
1575.227365,-0.417318,234179.000000,612161.000000
1578.245196,-0.419232,228934.000000,601094.000000
1581.258628,-0.419530,223478.000000,587171.000000
1584.267659,-0.422113,218239.000000,576827.000000
1587.272290,-0.423497,213357.000000,565723.000000
1591.271621,-0.424910,206678.000000,549799.000000
1594.265985,-0.428470,200655.000000,538171.000000
1597.255949,-0.430703,196105.000000,528679.000000
1600.241513,-0.433627,191413.000000,519516.000000
1603.222677,-0.437792,186271.000000,510431.000000
1606.199441,-0.441283,181567.000000,501557.000000
1609.171805,-0.445137,176656.000000,492340.000000
1613.128112,-0.451228,170106.000000,480781.000000
1616.090209,-0.456358,165195.000000,472449.000000
1619.047905,-0.459569,160661.000000,462892.000000
1622.001202,-0.465775,154762.000000,452313.000000
1624.950098,-0.472471,149284.000000,443082.000000
1627.894595,-0.476374,144304.000000,432168.000000
1630.834691,-0.484673,138573.000000,423011.000000
1634.747975,-0.492060,131373.000000,407912.000000
1637.677804,-0.498917,126061.000000,397647.000000
1640.603233,-0.507320,120043.000000,386062.000000
1643.524262,-0.515905,114222.000000,374675.000000
1646.440891,-0.519984,109595.000000,362890.000000
1649.353120,-0.528126,104146.000000,351373.000000
1653.229247,-0.515678,102337.000000,335514.000000
1656.131209,-0.507743,100118.000000,322296.000000
1659.028770,-0.511706,95076.000000,308871.000000
1661.921932,-0.498985,93881.000000,296185.000000
1664.810693,-0.492742,90392.000000,281107.000000
1667.695055,-0.484825,85969.000000,262523.000000
1670.575016,-0.471224,82225.000000,243348.000000
1674.408120,-0.430535,78925.000000,212691.000000
1677.277814,-inf,0.000000,189610.000000
1680.143108,-inf,0.000000,162638.000000
1683.004002,nan,-2147483648.000000,138893.000000
1685.860496,nan,-2147483648.000000,115562.000000
1688.712590,nan,-2147483648.000000,96997.000000
1691.560283,nan,-2147483648.000000,79476.000000
1695.350364,nan,-2147483648.000000,62048.000000
1698.187790,nan,-2147483648.000000,51980.000000
1701.020817,-inf,0.000000,43453.000000
