Method:,erol,,
Host Date-Time:,7/12/23 @ 13:37:52,,
Header Version:,1,,
System Temp (C):,35.12,,
Detector Temp (C):,18.09,,
Humidity (%):,26.92,,
Lamp PD:,3635,,
Shift Vector Coefficients:,-4.80707,0.053312,-0.000138677,,
Pixel to Wavelength Coefficients:,1763.6,-0.910608,-0.000244451,,
Serial Number:,6110061,,
Scan Config Name:,erol,,
Scan Config Type:,Slew,,
Section 1,,
Start wavelength (nm):,900,,
End wavelength (nm):,1700,,
Pattern Pixel Width (nm):,  11.71,,,,
Exposure (ms):,  0.635,,,,
Digital Resolution:,228,,
Num Repeats:,1,,
PGA Gain:,64,,
Total Measurement Time in sec:,  1.592,,
Wavelength (nm),Absorbance (AU),Reference Signal (unitless),Sample Signal (unitless)
901.370984,-0.755931,22318.000000,127229.000000
905.248306,-0.741942,26694.000000,147352.000000
909.121227,-0.734230,30240.000000,163988.000000
912.989749,-0.708225,35053.000000,179040.000000
918.140932,-0.703503,39668.000000,200421.000000
921.999187,-0.698246,44171.000000,220487.000000
925.853041,-0.698184,49463.000000,246868.000000
929.702495,-0.699286,55176.000000,276081.000000
933.547549,-0.694357,62603.000000,309708.000000
937.388203,-0.687930,70557.000000,343930.000000
941.224457,-0.678773,79215.000000,378077.000000
946.332618,-0.667689,90003.000000,418741.000000
950.158605,-0.664028,97001.000000,447512.000000
953.980191,-0.658382,104340.000000,475152.000000
957.797378,-0.652614,111157.000000,499518.000000
961.610165,-0.652186,117414.000000,527116.000000
965.418551,-0.648086,124361.000000,553058.000000
969.222537,-0.645065,131496.000000,580734.000000
974.287675,-0.642117,140925.000000,618166.000000
978.081394,-0.640662,148023.000000,647130.000000
981.870713,-0.639551,155197.000000,676760.000000
985.655632,-0.639078,162010.000000,705700.000000
989.436151,-0.635055,170019.000000,733758.000000
993.212270,-0.634826,176266.000000,760317.000000
998.240251,-0.631998,184964.000000,792657.000000
1002.006103,-0.631248,190519.000000,815053.000000
1005.767554,-0.627476,196102.000000,831684.000000
1009.524606,-0.626551,200098.000000,846825.000000
1013.277258,-0.624101,204164.000000,859173.000000
1017.025509,-0.624442,206631.000000,870237.000000
1020.769360,-0.621920,209246.000000,876147.000000
1025.754318,-0.619469,211932.000000,882401.000000
1029.487902,-0.618353,213316.000000,885883.000000
1033.217086,-0.617591,213821.000000,886423.000000
1036.941870,-0.617682,213615.000000,885756.000000
1040.662255,-0.615944,213930.000000,883518.000000
1044.378238,-0.614492,213905.000000,880467.000000
1048.089822,-0.613942,213173.000000,876344.000000
1053.031756,-0.613450,211884.000000,870058.000000
1056.733073,-0.612597,211098.000000,865129.000000
1060.429990,-0.612569,209880.000000,860083.000000
1064.122506,-0.612021,209078.000000,855715.000000
1067.810623,-0.612021,208224.000000,852220.000000
1071.494339,-0.612554,206922.000000,847932.000000
1076.399116,-0.612237,206676.000000,846306.000000
1080.072566,-0.612049,206200.000000,843990.000000
1083.741615,-0.612792,205636.000000,843124.000000
1087.406264,-0.611708,205874.000000,841995.000000
1091.066513,-0.611842,205797.000000,841940.000000
1094.722362,-0.613487,205514.000000,843973.000000
1098.373811,-0.613700,205628.000000,844855.000000
1103.235565,-0.611393,206788.000000,845119.000000
1106.876747,-0.613020,206389.000000,846655.000000
1110.513529,-0.613298,206615.000000,848124.000000
1114.145910,-0.613283,206738.000000,848600.000000
1117.773892,-0.613729,206547.000000,848688.000000
1121.397473,-0.613369,207088.000000,850206.000000
1125.016654,-0.614754,206464.000000,850352.000000
1129.835385,-0.612889,207418.000000,850620.000000
1133.444299,-0.613520,207695.000000,852995.000000
1137.048813,-0.611220,208493.000000,851749.000000
1140.648927,-0.611100,208223.000000,850410.000000
1144.244641,-0.610271,208337.000000,849254.000000
1147.835955,-0.608220,208774.000000,847026.000000
1152.617529,-0.607982,208238.000000,844387.000000
1156.198576,-0.605951,208484.000000,841442.000000
1159.775223,-0.604407,208962.000000,840377.000000
1163.347470,-0.602408,209317.000000,837940.000000
1166.915316,-0.600718,209935.000000,837149.000000
1170.478763,-0.597046,211435.000000,836032.000000
1174.037809,-0.593375,213105.000000,835542.000000
1178.776359,-0.589353,214394.000000,832847.000000
1182.325139,-0.581412,217962.000000,831367.000000
1185.869518,-0.577090,220075.000000,831114.000000
1189.409497,-0.571417,222694.000000,830090.000000
1192.945076,-0.568588,224594.000000,831737.000000
1196.476255,-0.565379,226828.000000,833827.000000
1200.003034,-0.562483,229675.000000,838681.000000
1204.698561,-0.561019,232729.000000,846972.000000
1208.215073,-0.559860,235830.000000,855971.000000
1211.727185,-0.559793,238631.000000,866003.000000
1215.234896,-0.559621,241974.000000,877789.000000
1218.738208,-0.559920,245450.000000,891010.000000
1222.237119,-0.560385,248996.000000,904852.000000
1226.895489,-0.562620,254001.000000,927802.000000
1230.384134,-0.563180,257796.000000,942880.000000
1233.868378,-0.565452,261030.000000,959716.000000
1237.348222,-0.566718,264910.000000,976823.000000
1240.823666,-0.567594,269187.000000,994600.000000
1244.294710,-0.567446,274535.000000,1014013.000000
1247.761354,-0.569879,278817.000000,1035614.000000
1252.376701,-0.570903,285943.000000,1064590.000000
1255.833078,-0.570290,292339.000000,1086867.000000
1259.285055,-0.569928,298387.000000,1108430.000000
1262.732632,-0.570796,303484.000000,1129618.000000
1266.175808,-0.571189,308643.000000,1149862.000000
1269.614584,-0.570742,313923.000000,1168330.000000
1273.048961,-0.570255,319097.000000,1186253.000000
1277.621284,-0.571671,324380.000000,1209831.000000
1281.045394,-0.571559,329793.000000,1229703.000000
1284.465103,-0.572721,333450.000000,1246672.000000
1287.880412,-0.574266,337104.000000,1264823.000000
1291.291321,-0.574794,340768.000000,1280127.000000
1294.697830,-0.575565,344605.000000,1296842.000000
1299.232997,-0.575749,349244.000000,1314854.000000
1302.629239,-0.576377,352441.000000,1328811.000000
1306.021081,-0.576448,355144.000000,1339223.000000
1309.408522,-0.576457,357732.000000,1349010.000000
1312.791564,-0.575618,360160.000000,1355544.000000
1316.170205,-0.575952,362173.000000,1364169.000000
1319.544447,-0.575522,364403.000000,1371209.000000
1324.036591,-0.575632,366317.000000,1378760.000000
1327.400565,-0.575834,366589.000000,1380426.000000
1330.760139,-0.574075,368623.000000,1382477.000000
1334.115313,-0.574579,368498.000000,1383613.000000
1337.466087,-0.572512,370046.000000,1382827.000000
1340.812461,-0.571487,370709.000000,1382038.000000
1344.154435,-0.569262,371502.000000,1377918.000000
1348.603555,-0.566342,371615.000000,1369099.000000
1351.935262,-0.563576,370997.000000,1358147.000000
1355.262569,-0.559464,371791.000000,1348225.000000
1358.585475,-0.556112,370879.000000,1334578.000000
1361.903982,-0.551542,370539.000000,1319399.000000
1365.218088,-0.546525,371657.000000,1308179.000000
1369.630052,-0.540572,372397.000000,1292939.000000
1372.933891,-0.536864,372524.000000,1282384.000000
1376.233331,-0.533786,372314.000000,1272610.000000
1379.528370,-0.531111,371243.000000,1261158.000000
1382.819009,-0.530149,369231.000000,1251548.000000
1386.105248,-0.528763,367705.000000,1242403.000000
1389.387087,-0.525995,367073.000000,1232388.000000
1393.756027,-0.523320,365715.000000,1220289.000000
1397.027599,-0.520778,365152.000000,1211299.000000
1400.294771,-0.516541,365097.000000,1199359.000000
1403.557542,-0.512607,364333.000000,1186057.000000
1406.815914,-0.505774,365413.000000,1171002.000000
1410.069885,-0.498383,365734.000000,1152254.000000
1413.319456,-0.492389,364947.000000,1134014.000000
1417.645373,-0.481196,365539.000000,1106954.000000
1420.884678,-0.473750,365230.000000,1087218.000000
1424.119582,-0.466094,365533.000000,1069105.000000
1427.350086,-0.460887,364906.000000,1054551.000000
1430.576190,-0.453783,365583.000000,1039368.000000
1433.797894,-0.448360,365648.000000,1026652.000000
1437.015198,-0.444024,365698.000000,1016592.000000
1441.298091,-0.440052,364890.000000,1005111.000000
1444.505128,-0.437389,364741.000000,998558.000000
1447.707765,-0.434024,364393.000000,989906.000000
1450.906001,-0.431963,363044.000000,981572.000000
1454.099838,-0.428955,362635.000000,973700.000000
1457.289274,-0.425533,361653.000000,963441.000000
1461.535011,-0.420698,360303.000000,949218.000000
1464.714180,-0.418454,358064.000000,938457.000000
1467.888950,-0.414072,356949.000000,926144.000000
1471.059319,-0.410109,355912.000000,915065.000000
1474.225288,-0.406004,353737.000000,900916.000000
1477.386857,-0.401839,352477.000000,889140.000000
1480.544025,-0.400268,349693.000000,878931.000000
1484.746739,-0.395692,347943.000000,865366.000000
1487.893641,-0.395999,344781.000000,858109.000000
1491.036142,-0.395530,342531.000000,851588.000000
1494.174244,-0.395098,340170.000000,844878.000000
1497.307945,-0.394340,337701.000000,837283.000000
1500.437247,-0.396706,334446.000000,833742.000000
1503.562148,-0.397061,331876.000000,828012.000000
1507.721838,-0.397775,327918.000000,819483.000000
1510.836473,-0.398657,324967.000000,813759.000000
1513.946707,-0.400396,321718.000000,808857.000000
1517.052541,-0.400259,319073.000000,801954.000000
1520.153975,-0.401434,315575.000000,795311.000000
1523.251008,-0.402380,311252.000000,786126.000000
1527.373542,-0.401466,306492.000000,772477.000000
1530.460309,-0.401274,302471.000000,762004.000000
1533.542676,-0.400154,298873.000000,751002.000000
1536.620642,-0.400350,294593.000000,740581.000000
1539.694209,-0.400323,290524.000000,730306.000000
1542.763375,-0.401545,285805.000000,720468.000000
1545.828141,-0.402767,281854.000000,712511.000000
1549.907652,-0.406116,274841.000000,700160.000000
1552.962151,-0.408320,270515.000000,692646.000000
1556.012250,-0.410576,265203.000000,682581.000000
1559.057949,-0.412129,260042.000000,671695.000000
1562.099248,-0.412342,255973.000000,661509.000000
1565.136147,-0.413520,250523.000000,649183.000000
1568.168646,-0.413296,245616.000000,636140.000000
1572.205133,-0.414377,238774.000000,619960.000000
1575.227365,-0.414601,234179.000000,608343.000000
1578.245196,-0.416808,228934.000000,597748.000000
1581.258628,-0.418159,223478.000000,585320.000000
1584.267659,-0.419391,218239.000000,573223.000000
1587.272290,-0.420543,213357.000000,561888.000000
1591.271621,-0.422229,206678.000000,546416.000000
1594.265985,-0.427744,200655.000000,537272.000000
1597.255949,-0.428646,196105.000000,526180.000000
1600.241513,-0.431813,191413.000000,517350.000000
1603.222677,-0.436359,186271.000000,508750.000000
1606.199441,-0.440498,181567.000000,500651.000000
1609.171805,-0.444432,176656.000000,491542.000000
1613.128112,-0.450683,170106.000000,480178.000000
1616.090209,-0.455933,165195.000000,471987.000000
1619.047905,-0.459792,160661.000000,463130.000000
1622.001202,-0.465997,154762.000000,452545.000000
1624.950098,-0.473618,149284.000000,444254.000000
1627.894595,-0.478170,144304.000000,433959.000000
1630.834691,-0.484820,138573.000000,423154.000000
1634.747975,-0.493431,131373.000000,409201.000000
1637.677804,-0.499057,126061.000000,397775.000000
1640.603233,-0.508694,120043.000000,387285.000000
1643.524262,-0.518151,114222.000000,376618.000000
1646.440891,-0.521561,109595.000000,364210.000000
1649.353120,-0.529298,104146.000000,352323.000000
1653.229247,-0.518079,102337.000000,337374.000000
1656.131209,-0.510994,100118.000000,324718.000000
1659.028770,-0.513921,95076.000000,310450.000000
1661.921932,-0.499920,93881.000000,296823.000000
1664.810693,-0.494641,90392.000000,282339.000000
1667.695055,-0.488076,85969.000000,264495.000000
1670.575016,-0.472818,82225.000000,244243.000000
1674.408120,-0.435952,78925.000000,215361.000000
1677.277814,-inf,0.000000,190073.000000
1680.143108,-inf,0.000000,164620.000000
1683.004002,nan,-2147483648.000000,139672.000000
1685.860496,nan,-2147483648.000000,117134.000000
1688.712590,nan,-2147483648.000000,96045.000000
1691.560283,nan,-2147483648.000000,80087.000000
1695.350364,nan,-2147483648.000000,61856.000000
1698.187790,nan,-2147483648.000000,52829.000000
1701.020817,-inf,0.000000,43982.000000
