Method:,erol,,
Host Date-Time:,7/12/23 @ 13:37:2,,
Header Version:,1,,
System Temp (C):,34.65,,
Detector Temp (C):,15.09,,
Humidity (%):,27.09,,
Lamp PD:,3645,,
Shift Vector Coefficients:,-4.80707,0.053312,-0.000138677,,
Pixel to Wavelength Coefficients:,1763.6,-0.910608,-0.000244451,,
Serial Number:,6110061,,
Scan Config Name:,erol,,
Scan Config Type:,Slew,,
Section 1,,
Start wavelength (nm):,900,,
End wavelength (nm):,1700,,
Pattern Pixel Width (nm):,  11.71,,,,
Exposure (ms):,  0.635,,,,
Digital Resolution:,228,,
Num Repeats:,1,,
PGA Gain:,64,,
Total Measurement Time in sec:,  1.592,,
Wavelength (nm),Absorbance (AU),Reference Signal (unitless),Sample Signal (unitless)
901.370984,-0.745522,22318.000000,124216.000000
905.248306,-0.732223,26694.000000,144091.000000
909.121227,-0.723438,30240.000000,159963.000000
912.989749,-0.697757,35053.000000,174776.000000
918.140932,-0.695536,39668.000000,196778.000000
921.999187,-0.689206,44171.000000,215945.000000
925.853041,-0.685273,49463.000000,239637.000000
929.702495,-0.687513,55176.000000,268697.000000
933.547549,-0.683942,62603.000000,302369.000000
937.388203,-0.679548,70557.000000,337356.000000
941.224457,-0.669376,79215.000000,369984.000000
946.332618,-0.659464,90003.000000,410886.000000
950.158605,-0.655577,97001.000000,438887.000000
953.980191,-0.648698,104340.000000,464674.000000
957.797378,-0.645610,111157.000000,491526.000000
961.610165,-0.643054,117414.000000,516148.000000
965.418551,-0.641080,124361.000000,544207.000000
969.222537,-0.636108,131496.000000,568880.000000
974.287675,-0.633709,140925.000000,606313.000000
978.081394,-0.632946,148023.000000,635734.000000
981.870713,-0.630927,155197.000000,663453.000000
985.655632,-0.630422,162010.000000,691774.000000
989.436151,-0.626697,170019.000000,719771.000000
993.212270,-0.626365,176266.000000,745647.000000
998.240251,-0.623717,184964.000000,777685.000000
1002.006103,-0.623584,190519.000000,800797.000000
1005.767554,-0.620333,196102.000000,818116.000000
1009.524606,-0.619519,200098.000000,833224.000000
1013.277258,-0.617381,204164.000000,845981.000000
1017.025509,-0.616638,206631.000000,854738.000000
1020.769360,-0.615070,209246.000000,862436.000000
1025.754318,-0.612357,211932.000000,868067.000000
1029.487902,-0.611206,213316.000000,871423.000000
1033.217086,-0.610257,213821.000000,871580.000000
1036.941870,-0.610247,213615.000000,870720.000000
1040.662255,-0.609132,213930.000000,869768.000000
1044.378238,-0.607591,213905.000000,866586.000000
1048.089822,-0.607377,213173.000000,863195.000000
1053.031756,-0.606765,211884.000000,856767.000000
1056.733073,-0.606299,211098.000000,852674.000000
1060.429990,-0.605810,209880.000000,846801.000000
1064.122506,-0.605267,209078.000000,842510.000000
1067.810623,-0.604855,208224.000000,838274.000000
1071.494339,-0.606258,206922.000000,835728.000000
1076.399116,-0.605674,206676.000000,833612.000000
1080.072566,-0.605427,206200.000000,831220.000000
1083.741615,-0.606189,205636.000000,830402.000000
1087.406264,-0.605080,205874.000000,829242.000000
1091.066513,-0.605032,205797.000000,828841.000000
1094.722362,-0.606115,205514.000000,829767.000000
1098.373811,-0.607480,205628.000000,832841.000000
1103.235565,-0.604567,206788.000000,831941.000000
1106.876747,-0.606705,206389.000000,834434.000000
1110.513529,-0.605918,206615.000000,833834.000000
1114.145910,-0.605785,206738.000000,834076.000000
1117.773892,-0.606420,206547.000000,834524.000000
1121.397473,-0.605390,207088.000000,834728.000000
1125.016654,-0.607708,206464.000000,836667.000000
1129.835385,-0.605480,207418.000000,836232.000000
1133.444299,-0.605372,207695.000000,837140.000000
1137.048813,-0.602992,208493.000000,835763.000000
1140.648927,-0.603119,208223.000000,834925.000000
1144.244641,-0.602501,208337.000000,834195.000000
1147.835955,-0.600419,208774.000000,831947.000000
1152.617529,-0.599923,208238.000000,828863.000000
1156.198576,-0.598428,208484.000000,826990.000000
1159.775223,-0.596587,208962.000000,825380.000000
1163.347470,-0.595169,209317.000000,824088.000000
1166.915316,-0.592716,209935.000000,821866.000000
1170.478763,-0.589589,211435.000000,821799.000000
1174.037809,-0.585285,213105.000000,820123.000000
1178.776359,-0.581833,214394.000000,818551.000000
1182.325139,-0.573642,217962.000000,816625.000000
1185.869518,-0.568796,220075.000000,815393.000000
1189.409497,-0.563944,222694.000000,815930.000000
1192.945076,-0.561100,224594.000000,817519.000000
1196.476255,-0.557700,226828.000000,819212.000000
1200.003034,-0.554838,229675.000000,824047.000000
1204.698561,-0.553616,232729.000000,832657.000000
1208.215073,-0.552057,235830.000000,840729.000000
1211.727185,-0.552598,238631.000000,851774.000000
1215.234896,-0.552813,241974.000000,864135.000000
1218.738208,-0.552519,245450.000000,875955.000000
1222.237119,-0.553596,248996.000000,890816.000000
1226.895489,-0.555015,254001.000000,911696.000000
1230.384134,-0.556228,257796.000000,927907.000000
1233.868378,-0.558579,261030.000000,944647.000000
1237.348222,-0.559399,264910.000000,960501.000000
1240.823666,-0.560769,269187.000000,979092.000000
1244.294710,-0.560764,274535.000000,998532.000000
1247.761354,-0.562672,278817.000000,1018572.000000
1252.376701,-0.563726,285943.000000,1047141.000000
1255.833078,-0.563353,292339.000000,1069646.000000
1259.285055,-0.562673,298387.000000,1090066.000000
1262.732632,-0.563951,303484.000000,1111954.000000
1266.175808,-0.563760,308643.000000,1130360.000000
1269.614584,-0.563583,313923.000000,1149228.000000
1273.048961,-0.562989,319097.000000,1166572.000000
1277.621284,-0.564800,324380.000000,1190842.000000
1281.045394,-0.563845,329793.000000,1208053.000000
1284.465103,-0.565214,333450.000000,1225306.000000
1287.880412,-0.567015,337104.000000,1243881.000000
1291.291321,-0.568022,340768.000000,1260320.000000
1294.697830,-0.568368,344605.000000,1275528.000000
1299.232997,-0.568960,349244.000000,1294461.000000
1302.629239,-0.568939,352441.000000,1306246.000000
1306.021081,-0.568868,355144.000000,1316049.000000
1309.408522,-0.568555,357732.000000,1324684.000000
1312.791564,-0.568524,360160.000000,1333580.000000
1316.170205,-0.568608,362173.000000,1341293.000000
1319.544447,-0.568111,364403.000000,1348010.000000
1324.036591,-0.568305,366317.000000,1355695.000000
1327.400565,-0.568844,366589.000000,1358387.000000
1330.760139,-0.566761,368623.000000,1359389.000000
1334.115313,-0.567645,368498.000000,1361696.000000
1337.466087,-0.565067,370046.000000,1359324.000000
1340.812461,-0.564306,370709.000000,1359375.000000
1344.154435,-0.561924,371502.000000,1354832.000000
1348.603555,-0.559084,371615.000000,1346409.000000
1351.935262,-0.557077,370997.000000,1337974.000000
1355.262569,-0.552434,371791.000000,1326578.000000
1358.585475,-0.548935,370879.000000,1312704.000000
1361.903982,-0.545728,370539.000000,1301853.000000
1365.218088,-0.539381,371657.000000,1286836.000000
1369.630052,-0.533788,372397.000000,1272900.000000
1372.933891,-0.530913,372524.000000,1264933.000000
1376.233331,-0.527130,372314.000000,1253255.000000
1379.528370,-0.525085,371243.000000,1243780.000000
1382.819009,-0.524245,369231.000000,1234649.000000
1386.105248,-0.521959,367705.000000,1223089.000000
1389.387087,-0.519762,367073.000000,1214826.000000
1393.756027,-0.517383,365715.000000,1203721.000000
1397.027599,-0.514429,365152.000000,1193721.000000
1400.294771,-0.510124,365097.000000,1181769.000000
1403.557542,-0.506679,364333.000000,1169978.000000
1406.815914,-0.499491,365413.000000,1154185.000000
1410.069885,-0.493184,365734.000000,1138542.000000
1413.319456,-0.486624,364947.000000,1119062.000000
1417.645373,-0.475727,365539.000000,1093103.000000
1420.884678,-0.468649,365230.000000,1074523.000000
1424.119582,-0.461258,365533.000000,1057268.000000
1427.350086,-0.454990,364906.000000,1040329.000000
1430.576190,-0.448666,365583.000000,1027193.000000
1433.797894,-0.443456,365648.000000,1015125.000000
1437.015198,-0.438985,365698.000000,1004865.000000
1441.298091,-0.435463,364890.000000,994547.000000
1444.505128,-0.431202,364741.000000,984435.000000
1447.707765,-0.429302,364393.000000,979201.000000
1450.906001,-0.427419,363044.000000,971355.000000
1454.099838,-0.424442,362635.000000,963633.000000
1457.289274,-0.420433,361653.000000,952193.000000
1461.535011,-0.416263,360303.000000,939574.000000
1464.714180,-0.414080,358064.000000,929054.000000
1467.888950,-0.409200,356949.000000,915812.000000
1471.059319,-0.404978,355912.000000,904317.000000
1474.225288,-0.401317,353737.000000,891245.000000
1477.386857,-0.397905,352477.000000,881122.000000
1480.544025,-0.395967,349693.000000,870269.000000
1484.746739,-0.391281,347943.000000,856622.000000
1487.893641,-0.392275,344781.000000,850782.000000
1491.036142,-0.390678,342531.000000,842128.000000
1494.174244,-0.391029,340170.000000,836999.000000
1497.307945,-0.390635,337701.000000,830171.000000
1500.437247,-0.391283,334446.000000,823396.000000
1503.562148,-0.392137,331876.000000,818678.000000
1507.721838,-0.393040,327918.000000,810598.000000
1510.836473,-0.394081,324967.000000,805230.000000
1513.946707,-0.395703,321718.000000,800162.000000
1517.052541,-0.395114,319073.000000,792509.000000
1520.153975,-0.396051,315575.000000,785513.000000
1523.251008,-0.397749,311252.000000,777787.000000
1527.373542,-0.397015,306492.000000,764600.000000
1530.460309,-0.395073,302471.000000,751202.000000
1533.542676,-0.394427,298873.000000,741163.000000
1536.620642,-0.395166,294593.000000,731794.000000
1539.694209,-0.395374,290524.000000,722032.000000
1542.763375,-0.396964,285805.000000,712908.000000
1545.828141,-0.397460,281854.000000,703856.000000
1549.907652,-0.401296,274841.000000,692432.000000
1552.962151,-0.403196,270515.000000,684522.000000
1556.012250,-0.405730,265203.000000,675007.000000
1559.057949,-0.407200,260042.000000,664116.000000
1562.099248,-0.406699,255973.000000,652970.000000
1565.136147,-0.408599,250523.000000,641869.000000
1568.168646,-0.408098,245616.000000,628572.000000
1572.205133,-0.409551,238774.000000,613109.000000
1575.227365,-0.409867,234179.000000,601748.000000
1578.245196,-0.410964,228934.000000,589758.000000
1581.258628,-0.412772,223478.000000,578105.000000
1584.267659,-0.414939,218239.000000,567377.000000
1587.272290,-0.415870,213357.000000,555875.000000
1591.271621,-0.417763,206678.000000,540826.000000
1594.265985,-0.422286,200655.000000,530562.000000
1597.255949,-0.424362,196105.000000,521015.000000
1600.241513,-0.427466,191413.000000,512198.000000
1603.222677,-0.432423,186271.000000,504160.000000
1606.199441,-0.434685,181567.000000,493994.000000
1609.171805,-0.440741,176656.000000,487382.000000
1613.128112,-0.446402,170106.000000,475468.000000
1616.090209,-0.450450,165195.000000,466065.000000
1619.047905,-0.455028,160661.000000,458077.000000
1622.001202,-0.461779,154762.000000,448171.000000
1624.950098,-0.468971,149284.000000,439526.000000
1627.894595,-0.473386,144304.000000,429205.000000
1630.834691,-0.480988,138573.000000,419437.000000
1634.747975,-0.488424,131373.000000,404511.000000
1637.677804,-0.495609,126061.000000,394630.000000
1640.603233,-0.503334,120043.000000,382535.000000
1643.524262,-0.512871,114222.000000,372067.000000
1646.440891,-0.517471,109595.000000,360796.000000
1649.353120,-0.526085,104146.000000,349726.000000
1653.229247,-0.513117,102337.000000,333541.000000
1656.131209,-0.505637,100118.000000,320737.000000
1659.028770,-0.510210,95076.000000,307809.000000
1661.921932,-0.496751,93881.000000,294665.000000
1664.810693,-0.488798,90392.000000,278566.000000
1667.695055,-0.482487,85969.000000,261113.000000
1670.575016,-0.470483,82225.000000,242933.000000
1674.408120,-0.429259,78925.000000,212067.000000
1677.277814,-inf,0.000000,187882.000000
1680.143108,-inf,0.000000,161289.000000
1683.004002,nan,-2147483648.000000,137607.000000
1685.860496,nan,-2147483648.000000,115114.000000
1688.712590,nan,-2147483648.000000,95892.000000
1691.560283,nan,-2147483648.000000,79010.000000
1695.350364,nan,-2147483648.000000,60472.000000
1698.187790,nan,-2147483648.000000,52633.000000
1701.020817,-inf,0.000000,43240.000000
