Method:,erol,,
Host Date-Time:,7/12/23 @ 13:38:19,,
Header Version:,1,,
System Temp (C):,35.37,,
Detector Temp (C):,17.76,,
Humidity (%):,26.73,,
Lamp PD:,3601,,
Shift Vector Coefficients:,-4.80707,0.053312,-0.000138677,,
Pixel to Wavelength Coefficients:,1763.6,-0.910608,-0.000244451,,
Serial Number:,6110061,,
Scan Config Name:,erol,,
Scan Config Type:,Slew,,
Section 1,,
Start wavelength (nm):,900,,
End wavelength (nm):,1700,,
Pattern Pixel Width (nm):,  11.71,,,,
Exposure (ms):,  0.635,,,,
Digital Resolution:,228,,
Num Repeats:,1,,
PGA Gain:,64,,
Total Measurement Time in sec:,  1.642,,
Wavelength (nm),Absorbance (AU),Reference Signal (unitless),Sample Signal (unitless)
901.370984,-0.633883,22318.000000,96059.000000
905.248306,-0.620210,26694.000000,111333.000000
909.121227,-0.614608,30240.000000,124506.000000
912.989749,-0.590726,35053.000000,136600.000000
918.140932,-0.589368,39668.000000,154102.000000
921.999187,-0.579813,44171.000000,167861.000000
925.853041,-0.578788,49463.000000,187529.000000
929.702495,-0.580798,55176.000000,210159.000000
933.547549,-0.577006,62603.000000,236375.000000
937.388203,-0.573894,70557.000000,264505.000000
941.224457,-0.564644,79215.000000,290704.000000
946.332618,-0.556454,90003.000000,324124.000000
950.158605,-0.551922,97001.000000,345699.000000
953.980191,-0.545965,104340.000000,366789.000000
957.797378,-0.540889,111157.000000,386212.000000
961.610165,-0.541728,117414.000000,408741.000000
965.418551,-0.537632,124361.000000,428861.000000
969.222537,-0.535826,131496.000000,451584.000000
974.287675,-0.533762,140925.000000,481671.000000
978.081394,-0.532819,148023.000000,504833.000000
981.870713,-0.531097,155197.000000,527206.000000
985.655632,-0.531951,162010.000000,551433.000000
989.436151,-0.526934,170019.000000,572047.000000
993.212270,-0.527027,176266.000000,593192.000000
998.240251,-0.524410,184964.000000,618725.000000
1002.006103,-0.522960,190519.000000,635182.000000
1005.767554,-0.519733,196102.000000,648955.000000
1009.524606,-0.519832,200098.000000,662330.000000
1013.277258,-0.517554,204164.000000,672253.000000
1017.025509,-0.516406,206631.000000,678581.000000
1020.769360,-0.515436,209246.000000,685636.000000
1025.754318,-0.512478,211932.000000,689723.000000
1029.487902,-0.510904,213316.000000,691715.000000
1033.217086,-0.510019,213821.000000,691942.000000
1036.941870,-0.510788,213615.000000,692500.000000
1040.662255,-0.508353,213930.000000,689643.000000
1044.378238,-0.507154,213905.000000,687662.000000
1048.089822,-0.507388,213173.000000,685678.000000
1053.031756,-0.507255,211884.000000,681323.000000
1056.733073,-0.505243,211098.000000,675658.000000
1060.429990,-0.505451,209880.000000,672082.000000
1064.122506,-0.504572,209078.000000,668160.000000
1067.810623,-0.505201,208224.000000,666395.000000
1071.494339,-0.505261,206922.000000,662319.000000
1076.399116,-0.504784,206676.000000,660806.000000
1080.072566,-0.504966,206200.000000,659560.000000
1083.741615,-0.505037,205636.000000,657864.000000
1087.406264,-0.503976,205874.000000,657018.000000
1091.066513,-0.503972,205797.000000,656766.000000
1094.722362,-0.505476,205514.000000,658138.000000
1098.373811,-0.506003,205628.000000,659304.000000
1103.235565,-0.503837,206788.000000,659724.000000
1106.876747,-0.505369,206389.000000,660778.000000
1110.513529,-0.505138,206615.000000,661150.000000
1114.145910,-0.505524,206738.000000,662131.000000
1117.773892,-0.505254,206547.000000,661109.000000
1121.397473,-0.505199,207088.000000,662756.000000
1125.016654,-0.506921,206464.000000,663385.000000
1129.835385,-0.504832,207418.000000,663252.000000
1133.444299,-0.504520,207695.000000,663660.000000
1137.048813,-0.502963,208493.000000,663827.000000
1140.648927,-0.502889,208223.000000,662853.000000
1144.244641,-0.501840,208337.000000,661616.000000
1147.835955,-0.500616,208774.000000,661138.000000
1152.617529,-0.501080,208238.000000,660146.000000
1156.198576,-0.498886,208484.000000,657595.000000
1159.775223,-0.498241,208962.000000,658125.000000
1163.347470,-0.496705,209317.000000,656916.000000
1166.915316,-0.495385,209935.000000,656855.000000
1170.478763,-0.491540,211435.000000,655717.000000
1174.037809,-0.488192,213105.000000,655822.000000
1178.776359,-0.484879,214394.000000,654774.000000
1182.325139,-0.477815,217962.000000,654931.000000
1185.869518,-0.474261,220075.000000,655891.000000
1189.409497,-0.469561,222694.000000,656553.000000
1192.945076,-0.467044,224594.000000,658327.000000
1196.476255,-0.464896,226828.000000,661596.000000
1200.003034,-0.462707,229675.000000,666532.000000
1204.698561,-0.460933,232729.000000,672641.000000
1208.215073,-0.460126,235830.000000,680339.000000
1211.727185,-0.460552,238631.000000,689095.000000
1215.234896,-0.460594,241974.000000,698815.000000
1218.738208,-0.460621,245450.000000,708899.000000
1222.237119,-0.460945,248996.000000,719676.000000
1226.895489,-0.462136,254001.000000,736159.000000
1230.384134,-0.462310,257796.000000,747457.000000
1233.868378,-0.465000,261030.000000,761536.000000
1237.348222,-0.465521,264910.000000,773783.000000
1240.823666,-0.466427,269187.000000,787919.000000
1244.294710,-0.466801,274535.000000,804264.000000
1247.761354,-0.468639,278817.000000,820273.000000
1252.376701,-0.468647,285943.000000,841252.000000
1255.833078,-0.468615,292339.000000,860006.000000
1259.285055,-0.467446,298387.000000,875440.000000
1262.732632,-0.468755,303484.000000,893081.000000
1266.175808,-0.468511,308643.000000,907752.000000
1269.614584,-0.467660,313923.000000,921474.000000
1273.048961,-0.466924,319097.000000,935075.000000
1277.621284,-0.469046,324380.000000,955213.000000
1281.045394,-0.468010,329793.000000,968839.000000
1284.465103,-0.469267,333450.000000,982421.000000
1287.880412,-0.470629,337104.000000,996307.000000
1291.291321,-0.470999,340768.000000,1007993.000000
1294.697830,-0.470857,344605.000000,1019011.000000
1299.232997,-0.470661,349244.000000,1032262.000000
1302.629239,-0.470948,352441.000000,1042401.000000
1306.021081,-0.470754,355144.000000,1049925.000000
1309.408522,-0.471004,357732.000000,1058185.000000
1312.791564,-0.469629,360160.000000,1061999.000000
1316.170205,-0.470090,362173.000000,1069071.000000
1319.544447,-0.469869,364403.000000,1075105.000000
1324.036591,-0.469846,366317.000000,1080696.000000
1327.400565,-0.470506,366589.000000,1083143.000000
1330.760139,-0.468439,368623.000000,1083980.000000
1334.115313,-0.469768,368498.000000,1086935.000000
1337.466087,-0.467655,370046.000000,1086203.000000
1340.812461,-0.466802,370709.000000,1086013.000000
1344.154435,-0.465097,371502.000000,1084071.000000
1348.603555,-0.462569,371615.000000,1078107.000000
1351.935262,-0.460743,370997.000000,1071800.000000
1355.262569,-0.457313,371791.000000,1065644.000000
1358.585475,-0.454630,370879.000000,1056483.000000
1361.903982,-0.451813,370539.000000,1048690.000000
1365.218088,-0.446909,371657.000000,1040043.000000
1369.630052,-0.441880,372397.000000,1030117.000000
1372.933891,-0.438616,372524.000000,1022752.000000
1376.233331,-0.436104,372314.000000,1016280.000000
1379.528370,-0.434358,371243.000000,1009290.000000
1382.819009,-0.432644,369231.000000,999867.000000
1386.105248,-0.432315,367705.000000,994981.000000
1389.387087,-0.430168,367073.000000,988371.000000
1393.756027,-0.427779,365715.000000,979313.000000
1397.027599,-0.424831,365152.000000,971191.000000
1400.294771,-0.421336,365097.000000,963261.000000
1403.557542,-0.418708,364333.000000,955447.000000
1406.815914,-0.412373,365413.000000,944402.000000
1410.069885,-0.407190,365734.000000,934018.000000
1413.319456,-0.401957,364947.000000,920845.000000
1417.645373,-0.392292,365539.000000,902040.000000
1420.884678,-0.385853,365230.000000,888014.000000
1424.119582,-0.379674,365533.000000,876194.000000
1427.350086,-0.374456,364906.000000,864245.000000
1430.576190,-0.368425,365583.000000,853908.000000
1433.797894,-0.363637,365648.000000,844696.000000
1437.015198,-0.360333,365698.000000,838408.000000
1441.298091,-0.356165,364890.000000,828565.000000
1444.505128,-0.353997,364741.000000,824104.000000
1447.707765,-0.351325,364393.000000,818267.000000
1450.906001,-0.349565,363044.000000,811941.000000
1454.099838,-0.346112,362635.000000,804603.000000
1457.289274,-0.344257,361653.000000,799005.000000
1461.535011,-0.339485,360303.000000,787322.000000
1464.714180,-0.337456,358064.000000,778783.000000
1467.888950,-0.333693,356949.000000,769661.000000
1471.059319,-0.330236,355912.000000,761340.000000
1474.225288,-0.326734,353737.000000,750611.000000
1477.386857,-0.322592,352477.000000,740838.000000
1480.544025,-0.321659,349693.000000,733409.000000
1484.746739,-0.317712,347943.000000,723137.000000
1487.893641,-0.317970,344781.000000,716991.000000
1491.036142,-0.316337,342531.000000,709638.000000
1494.174244,-0.316322,340170.000000,704723.000000
1497.307945,-0.317220,337701.000000,701055.000000
1500.437247,-0.318755,334446.000000,696756.000000
1503.562148,-0.318642,331876.000000,691223.000000
1507.721838,-0.319616,327918.000000,684513.000000
1510.836473,-0.321792,324967.000000,681760.000000
1513.946707,-0.322734,321718.000000,676409.000000
1517.052541,-0.323354,319073.000000,671806.000000
1520.153975,-0.323674,315575.000000,664931.000000
1523.251008,-0.325486,311252.000000,658565.000000
1527.373542,-0.324125,306492.000000,646464.000000
1530.460309,-0.324014,302471.000000,637819.000000
1533.542676,-0.323693,298873.000000,629766.000000
1536.620642,-0.323780,294593.000000,620872.000000
1539.694209,-0.324226,290524.000000,612926.000000
1542.763375,-0.326178,285805.000000,605687.000000
1545.828141,-0.327172,281854.000000,598682.000000
1549.907652,-0.331088,274841.000000,589073.000000
1552.962151,-0.333734,270515.000000,583345.000000
1556.012250,-0.335783,265203.000000,574594.000000
1559.057949,-0.338555,260042.000000,567020.000000
1562.099248,-0.337081,255973.000000,556257.000000
1565.136147,-0.338914,250523.000000,546716.000000
1568.168646,-0.340203,245616.000000,537601.000000
1572.205133,-0.341348,238774.000000,524004.000000
1575.227365,-0.341992,234179.000000,514683.000000
1578.245196,-0.343787,228934.000000,505240.000000
1581.258628,-0.345400,223478.000000,495034.000000
1584.267659,-0.346669,218239.000000,484843.000000
1587.272290,-0.348773,213357.000000,476299.000000
1591.271621,-0.351040,206678.000000,463804.000000
1594.265985,-0.355415,200655.000000,454847.000000
1597.255949,-0.357126,196105.000000,446287.000000
1600.241513,-0.360075,191413.000000,438578.000000
1603.222677,-0.362835,186271.000000,429517.000000
1606.199441,-0.366435,181567.000000,422155.000000
1609.171805,-0.369785,176656.000000,413917.000000
1613.128112,-0.376093,170106.000000,404401.000000
1616.090209,-0.380875,165195.000000,397074.000000
1619.047905,-0.384382,160661.000000,389307.000000
1622.001202,-0.391922,154762.000000,381581.000000
1624.950098,-0.397158,149284.000000,372539.000000
1627.894595,-0.401116,144304.000000,363408.000000
1630.834691,-0.408325,138573.000000,354816.000000
1634.747975,-0.416130,131373.000000,342481.000000
1637.677804,-0.422034,126061.000000,333131.000000
1640.603233,-0.431641,120043.000000,324323.000000
1643.524262,-0.439767,114222.000000,314425.000000
1646.440891,-0.443575,109595.000000,304345.000000
1649.353120,-0.452493,104146.000000,295213.000000
1653.229247,-0.440430,102337.000000,282139.000000
1656.131209,-0.432526,100118.000000,271043.000000
1659.028770,-0.436862,95076.000000,259976.000000
1661.921932,-0.422507,93881.000000,248362.000000
1664.810693,-0.415691,90392.000000,235408.000000
1667.695055,-0.410151,85969.000000,221051.000000
1670.575016,-0.398988,82225.000000,206059.000000
1674.408120,-0.358817,78925.000000,180315.000000
1677.277814,-inf,0.000000,159940.000000
1680.143108,-inf,0.000000,137625.000000
1683.004002,nan,-2147483648.000000,118859.000000
1685.860496,nan,-2147483648.000000,98467.000000
1688.712590,nan,-2147483648.000000,83042.000000
1691.560283,nan,-2147483648.000000,67693.000000
1695.350364,nan,-2147483648.000000,52887.000000
1698.187790,nan,-2147483648.000000,44370.000000
1701.020817,-inf,0.000000,35841.000000
