Method:,erol,,
Host Date-Time:,7/12/23 @ 13:38:3,,
Header Version:,1,,
System Temp (C):,35.19,,
Detector Temp (C):,17.85,,
Humidity (%):,26.82,,
Lamp PD:,3626,,
Shift Vector Coefficients:,-4.80707,0.053312,-0.000138677,,
Pixel to Wavelength Coefficients:,1763.6,-0.910608,-0.000244451,,
Serial Number:,6110061,,
Scan Config Name:,erol,,
Scan Config Type:,Slew,,
Section 1,,
Start wavelength (nm):,900,,
End wavelength (nm):,1700,,
Pattern Pixel Width (nm):,  11.71,,,,
Exposure (ms):,  0.635,,,,
Digital Resolution:,228,,
Num Repeats:,1,,
PGA Gain:,64,,
Total Measurement Time in sec:,  1.657,,
Wavelength (nm),Absorbance (AU),Reference Signal (unitless),Sample Signal (unitless)
901.370984,-0.754042,22318.000000,126677.000000
905.248306,-0.739768,26694.000000,146616.000000
909.121227,-0.732614,30240.000000,163379.000000
912.989749,-0.706443,35053.000000,178307.000000
918.140932,-0.703180,39668.000000,200272.000000
921.999187,-0.697749,44171.000000,220235.000000
925.853041,-0.695677,49463.000000,245447.000000
929.702495,-0.697953,55176.000000,275235.000000
933.547549,-0.693036,62603.000000,308767.000000
937.388203,-0.687169,70557.000000,343328.000000
941.224457,-0.678480,79215.000000,377822.000000
946.332618,-0.667908,90003.000000,418953.000000
950.158605,-0.662942,97001.000000,446394.000000
953.980191,-0.657277,104340.000000,473945.000000
957.797378,-0.653118,111157.000000,500098.000000
961.610165,-0.650947,117414.000000,525614.000000
965.418551,-0.646271,124361.000000,550751.000000
969.222537,-0.643868,131496.000000,579136.000000
974.287675,-0.642019,140925.000000,618026.000000
978.081394,-0.640071,148023.000000,646249.000000
981.870713,-0.638388,155197.000000,674950.000000
985.655632,-0.637523,162010.000000,703177.000000
989.436151,-0.632954,170019.000000,730216.000000
993.212270,-0.633569,176266.000000,758120.000000
998.240251,-0.630649,184964.000000,790198.000000
1002.006103,-0.629227,190519.000000,811270.000000
1005.767554,-0.625933,196102.000000,828734.000000
1009.524606,-0.625746,200098.000000,845257.000000
1013.277258,-0.623431,204164.000000,857848.000000
1017.025509,-0.623128,206631.000000,867608.000000
1020.769360,-0.620822,209246.000000,873935.000000
1025.754318,-0.619164,211932.000000,881781.000000
1029.487902,-0.617107,213316.000000,883346.000000
1033.217086,-0.616251,213821.000000,883693.000000
1036.941870,-0.616976,213615.000000,884316.000000
1040.662255,-0.615179,213930.000000,881964.000000
1044.378238,-0.613241,213905.000000,877934.000000
1048.089822,-0.612886,213173.000000,874215.000000
1053.031756,-0.612729,211884.000000,868614.000000
1056.733073,-0.611222,211098.000000,862394.000000
1060.429990,-0.611057,209880.000000,857093.000000
1064.122506,-0.610842,209078.000000,853396.000000
1067.810623,-0.610502,208224.000000,849245.000000
1071.494339,-0.611357,206922.000000,845598.000000
1076.399116,-0.610357,206676.000000,842650.000000
1080.072566,-0.611017,206200.000000,841987.000000
1083.741615,-0.611066,205636.000000,839779.000000
1087.406264,-0.610276,205874.000000,839223.000000
1091.066513,-0.609982,205797.000000,838342.000000
1094.722362,-0.612225,205514.000000,841524.000000
1098.373811,-0.611952,205628.000000,841461.000000
1103.235565,-0.609613,206788.000000,841663.000000
1106.876747,-0.611524,206389.000000,843743.000000
1110.513529,-0.610502,206615.000000,842682.000000
1114.145910,-0.611558,206738.000000,845237.000000
1117.773892,-0.612501,206547.000000,846292.000000
1121.397473,-0.611322,207088.000000,846207.000000
1125.016654,-0.613577,206464.000000,848050.000000
1129.835385,-0.611514,207418.000000,847930.000000
1133.444299,-0.611608,207695.000000,849247.000000
1137.048813,-0.609767,208493.000000,848904.000000
1140.648927,-0.609872,208223.000000,848009.000000
1144.244641,-0.608668,208337.000000,846124.000000
1147.835955,-0.606908,208774.000000,844471.000000
1152.617529,-0.606655,208238.000000,841812.000000
1156.198576,-0.604694,208484.000000,839009.000000
1159.775223,-0.602905,208962.000000,837475.000000
1163.347470,-0.600690,209317.000000,834631.000000
1166.915316,-0.599121,209935.000000,834077.000000
1170.478763,-0.595959,211435.000000,833943.000000
1174.037809,-0.590980,213105.000000,830947.000000
1178.776359,-0.588546,214394.000000,831301.000000
1182.325139,-0.579487,217962.000000,827690.000000
1185.869518,-0.575137,220075.000000,827385.000000
1189.409497,-0.570204,222694.000000,827776.000000
1192.945076,-0.566883,224594.000000,828479.000000
1196.476255,-0.564238,226828.000000,831639.000000
1200.003034,-0.560980,229675.000000,835783.000000
1204.698561,-0.559915,232729.000000,844822.000000
1208.215073,-0.558436,235830.000000,853169.000000
1211.727185,-0.557791,238631.000000,862022.000000
1215.234896,-0.557902,241974.000000,874321.000000
1218.738208,-0.558581,245450.000000,888269.000000
1222.237119,-0.558990,248996.000000,901950.000000
1226.895489,-0.560791,254001.000000,923904.000000
1230.384134,-0.562311,257796.000000,940994.000000
1233.868378,-0.563812,261030.000000,956097.000000
1237.348222,-0.566010,264910.000000,975233.000000
1240.823666,-0.567032,269187.000000,993312.000000
1244.294710,-0.566521,274535.000000,1011855.000000
1247.761354,-0.568397,278817.000000,1032087.000000
1252.376701,-0.569483,285943.000000,1061116.000000
1255.833078,-0.568495,292339.000000,1082384.000000
1259.285055,-0.568614,298387.000000,1105081.000000
1262.732632,-0.569472,303484.000000,1126179.000000
1266.175808,-0.569580,308643.000000,1145609.000000
1269.614584,-0.569165,313923.000000,1164094.000000
1273.048961,-0.568924,319097.000000,1182623.000000
1277.621284,-0.570533,324380.000000,1206666.000000
1281.045394,-0.569737,329793.000000,1224556.000000
1284.465103,-0.571287,333450.000000,1242560.000000
1287.880412,-0.572309,337104.000000,1259138.000000
1291.291321,-0.573369,340768.000000,1275934.000000
1294.697830,-0.573642,344605.000000,1291112.000000
1299.232997,-0.573981,349244.000000,1309512.000000
1302.629239,-0.574244,352441.000000,1322302.000000
1306.021081,-0.574451,355144.000000,1333078.000000
1309.408522,-0.574287,357732.000000,1342284.000000
1312.791564,-0.573990,360160.000000,1350471.000000
1316.170205,-0.574015,362173.000000,1358099.000000
1319.544447,-0.573517,364403.000000,1364895.000000
1324.036591,-0.573603,366317.000000,1372335.000000
1327.400565,-0.573850,366589.000000,1374134.000000
1330.760139,-0.572531,368623.000000,1377569.000000
1334.115313,-0.572325,368498.000000,1376450.000000
1337.466087,-0.571044,370046.000000,1378161.000000
1340.812461,-0.569759,370709.000000,1376552.000000
1344.154435,-0.567255,371502.000000,1371564.000000
1348.603555,-0.564290,371615.000000,1362647.000000
1351.935262,-0.562100,370997.000000,1353538.000000
1355.262569,-0.557630,371791.000000,1342545.000000
1358.585475,-0.554311,370879.000000,1329057.000000
1361.903982,-0.550368,370539.000000,1315837.000000
1365.218088,-0.544720,371657.000000,1302755.000000
1369.630052,-0.539354,372397.000000,1289318.000000
1372.933891,-0.535690,372524.000000,1278922.000000
1376.233331,-0.531757,372314.000000,1266679.000000
1379.528370,-0.529999,371243.000000,1257932.000000
1382.819009,-0.528921,369231.000000,1248014.000000
1386.105248,-0.526915,367705.000000,1237127.000000
1389.387087,-0.524483,367073.000000,1228105.000000
1393.756027,-0.522319,365715.000000,1217479.000000
1397.027599,-0.519157,365152.000000,1206786.000000
1400.294771,-0.514750,365097.000000,1194422.000000
1403.557542,-0.510819,364333.000000,1181184.000000
1406.815914,-0.504282,365413.000000,1166987.000000
1410.069885,-0.497419,365734.000000,1149699.000000
1413.319456,-0.491277,364947.000000,1131115.000000
1417.645373,-0.480066,365539.000000,1104078.000000
1420.884678,-0.473285,365230.000000,1086055.000000
1424.119582,-0.465553,365533.000000,1067775.000000
1427.350086,-0.460094,364906.000000,1052628.000000
1430.576190,-0.453596,365583.000000,1038920.000000
1433.797894,-0.448222,365648.000000,1026326.000000
1437.015198,-0.443625,365698.000000,1015659.000000
1441.298091,-0.440021,364890.000000,1005040.000000
1444.505128,-0.436873,364741.000000,997372.000000
1447.707765,-0.434084,364393.000000,990044.000000
1450.906001,-0.432348,363044.000000,982443.000000
1454.099838,-0.428964,362635.000000,973719.000000
1457.289274,-0.425795,361653.000000,964023.000000
1461.535011,-0.421077,360303.000000,950047.000000
1464.714180,-0.418846,358064.000000,939306.000000
1467.888950,-0.414439,356949.000000,926926.000000
1471.059319,-0.410155,355912.000000,915161.000000
1474.225288,-0.406377,353737.000000,901690.000000
1477.386857,-0.402425,352477.000000,890340.000000
1480.544025,-0.400513,349693.000000,879428.000000
1484.746739,-0.396244,347943.000000,866468.000000
1487.893641,-0.396694,344781.000000,859484.000000
1491.036142,-0.395617,342531.000000,851760.000000
1494.174244,-0.395282,340170.000000,845237.000000
1497.307945,-0.395575,337701.000000,839667.000000
1500.437247,-0.396073,334446.000000,832528.000000
1503.562148,-0.396238,331876.000000,826445.000000
1507.721838,-0.397514,327918.000000,818992.000000
1510.836473,-0.399000,324967.000000,814403.000000
1513.946707,-0.399553,321718.000000,807288.000000
1517.052541,-0.399306,319073.000000,800196.000000
1520.153975,-0.400823,315575.000000,794192.000000
1523.251008,-0.401702,311252.000000,784900.000000
1527.373542,-0.401261,306492.000000,772111.000000
1530.460309,-0.400808,302471.000000,761187.000000
1533.542676,-0.399630,298873.000000,750095.000000
1536.620642,-0.398667,294593.000000,737716.000000
1539.694209,-0.399224,290524.000000,728461.000000
1542.763375,-0.400888,285805.000000,719379.000000
1545.828141,-0.401994,281854.000000,711244.000000
1549.907652,-0.405951,274841.000000,699895.000000
1552.962151,-0.407207,270515.000000,690873.000000
1556.012250,-0.410142,265203.000000,681900.000000
1559.057949,-0.411744,260042.000000,671101.000000
1562.099248,-0.411105,255973.000000,659628.000000
1565.136147,-0.412120,250523.000000,647094.000000
1568.168646,-0.412788,245616.000000,635396.000000
1572.205133,-0.413360,238774.000000,618511.000000
1575.227365,-0.414373,234179.000000,608024.000000
1578.245196,-0.415599,228934.000000,596087.000000
1581.258628,-0.417747,223478.000000,584766.000000
1584.267659,-0.419722,218239.000000,573660.000000
1587.272290,-0.420038,213357.000000,561235.000000
1591.271621,-0.422976,206678.000000,547357.000000
1594.265985,-0.425966,200655.000000,535077.000000
1597.255949,-0.427950,196105.000000,525338.000000
1600.241513,-0.430118,191413.000000,515335.000000
1603.222677,-0.435067,186271.000000,507238.000000
1606.199441,-0.439561,181567.000000,499572.000000
1609.171805,-0.443063,176656.000000,489995.000000
1613.128112,-0.449729,170106.000000,479125.000000
1616.090209,-0.452827,165195.000000,468623.000000
1619.047905,-0.456917,160661.000000,460074.000000
1622.001202,-0.464467,154762.000000,450953.000000
1624.950098,-0.471453,149284.000000,442045.000000
1627.894595,-0.475396,144304.000000,431196.000000
1630.834691,-0.481068,138573.000000,419514.000000
1634.747975,-0.490166,131373.000000,406137.000000
1637.677804,-0.495448,126061.000000,394483.000000
1640.603233,-0.506693,120043.000000,385505.000000
1643.524262,-0.513872,114222.000000,372925.000000
1646.440891,-0.518744,109595.000000,361855.000000
1649.353120,-0.527018,104146.000000,350478.000000
1653.229247,-0.513944,102337.000000,334177.000000
1656.131209,-0.507386,100118.000000,322031.000000
1659.028770,-0.512605,95076.000000,309511.000000
1661.921932,-0.497484,93881.000000,295163.000000
1664.810693,-0.490188,90392.000000,279459.000000
1667.695055,-0.485072,85969.000000,262672.000000
1670.575016,-0.471527,82225.000000,243518.000000
1674.408120,-0.430539,78925.000000,212693.000000
1677.277814,-inf,0.000000,188475.000000
1680.143108,-inf,0.000000,164293.000000
1683.004002,nan,-2147483648.000000,139244.000000
1685.860496,nan,-2147483648.000000,114552.000000
1688.712590,nan,-2147483648.000000,96698.000000
1691.560283,nan,-2147483648.000000,78961.000000
1695.350364,nan,-2147483648.000000,61906.000000
1698.187790,nan,-2147483648.000000,52079.000000
1701.020817,-inf,0.000000,42846.000000
