Method:,erol,,
Host Date-Time:,7/12/23 @ 14:16:51,,
Header Version:,1,,
System Temp (C):,40.62,,
Detector Temp (C):,27.61,,
Humidity (%):,16.36,,
Lamp PD:,3553,,
Shift Vector Coefficients:,-4.80707,0.053312,-0.000138677,,
Pixel to Wavelength Coefficients:,1763.6,-0.910608,-0.000244451,,
Serial Number:,6110061,,
Scan Config Name:,erol,,
Scan Config Type:,Slew,,
Section 1,,
Start wavelength (nm):,900,,
End wavelength (nm):,1700,,
Pattern Pixel Width (nm):,  11.71,,,,
Exposure (ms):,  0.635,,,,
Digital Resolution:,228,,
Num Repeats:,1,,
PGA Gain:,64,,
Total Measurement Time in sec:,  1.592,,
Wavelength (nm),Absorbance (AU),Reference Signal (unitless),Sample Signal (unitless)
901.370984,-0.697528,22318.000000,111220.000000
905.248306,-0.681278,26694.000000,128142.000000
909.121227,-0.670531,30240.000000,141616.000000
912.989749,-0.645343,35053.000000,154906.000000
918.140932,-0.640564,39668.000000,173382.000000
921.999187,-0.632046,44171.000000,189314.000000
925.853041,-0.625096,49463.000000,208630.000000
929.702495,-0.629149,55176.000000,234909.000000
933.547549,-0.619829,62603.000000,260870.000000
937.388203,-0.617170,70557.000000,292220.000000
941.224457,-0.610103,79215.000000,322783.000000
946.332618,-0.601056,90003.000000,359181.000000
950.158605,-0.600880,97001.000000,386951.000000
953.980191,-0.593443,104340.000000,409161.000000
957.797378,-0.591157,111157.000000,433605.000000
961.610165,-0.590225,117414.000000,457030.000000
965.418551,-0.587004,124361.000000,480494.000000
969.222537,-0.583213,131496.000000,503646.000000
974.287675,-0.581394,140925.000000,537504.000000
978.081394,-0.579698,148023.000000,562376.000000
981.870713,-0.579773,155197.000000,589734.000000
985.655632,-0.578344,162010.000000,613601.000000
989.436151,-0.575402,170019.000000,639587.000000
993.212270,-0.574684,176266.000000,661991.000000
998.240251,-0.571710,184964.000000,689917.000000
1002.006103,-0.571119,190519.000000,709672.000000
1005.767554,-0.568142,196102.000000,725477.000000
1009.524606,-0.566834,200098.000000,738034.000000
1013.277258,-0.565289,204164.000000,750358.000000
1017.025509,-0.564926,206631.000000,758789.000000
1020.769360,-0.563133,209246.000000,765227.000000
1025.754318,-0.561664,211932.000000,772432.000000
1029.487902,-0.560508,213316.000000,775410.000000
1033.217086,-0.560221,213821.000000,776733.000000
1036.941870,-0.559639,213615.000000,774945.000000
1040.662255,-0.558133,213930.000000,773401.000000
1044.378238,-0.556935,213905.000000,771181.000000
1048.089822,-0.556168,213173.000000,767186.000000
1053.031756,-0.555528,211884.000000,761423.000000
1056.733073,-0.555147,211098.000000,757933.000000
1060.429990,-0.554747,209880.000000,752866.000000
1064.122506,-0.553978,209078.000000,748663.000000
1067.810623,-0.553802,208224.000000,745302.000000
1071.494339,-0.554910,206922.000000,742534.000000
1076.399116,-0.553135,206676.000000,738627.000000
1080.072566,-0.553505,206200.000000,737553.000000
1083.741615,-0.553495,205636.000000,735519.000000
1087.406264,-0.552637,205874.000000,734918.000000
1091.066513,-0.552486,205797.000000,734387.000000
1094.722362,-0.553117,205514.000000,734443.000000
1098.373811,-0.553095,205628.000000,734813.000000
1103.235565,-0.552084,206788.000000,737240.000000
1106.876747,-0.552521,206389.000000,736559.000000
1110.513529,-0.552557,206615.000000,737427.000000
1114.145910,-0.551486,206738.000000,736048.000000
1117.773892,-0.553257,206547.000000,738373.000000
1121.397473,-0.552256,207088.000000,738603.000000
1125.016654,-0.554013,206464.000000,739363.000000
1129.835385,-0.551743,207418.000000,738906.000000
1133.444299,-0.552822,207695.000000,741733.000000
1137.048813,-0.550972,208493.000000,741419.000000
1140.648927,-0.551166,208223.000000,740790.000000
1144.244641,-0.550964,208337.000000,740850.000000
1147.835955,-0.549565,208774.000000,740017.000000
1152.617529,-0.550564,208238.000000,739817.000000
1156.198576,-0.550115,208484.000000,739925.000000
1159.775223,-0.548668,208962.000000,739154.000000
1163.347470,-0.548239,209317.000000,739680.000000
1166.915316,-0.546306,209935.000000,738569.000000
1170.478763,-0.545259,211435.000000,742055.000000
1174.037809,-0.541618,213105.000000,741671.000000
1178.776359,-0.539154,214394.000000,741936.000000
1182.325139,-0.533262,217962.000000,744120.000000
1185.869518,-0.530149,220075.000000,745967.000000
1189.409497,-0.527043,222694.000000,749466.000000
1192.945076,-0.525407,224594.000000,753018.000000
1196.476255,-0.523477,226828.000000,757136.000000
1200.003034,-0.520500,229675.000000,761402.000000
1204.698561,-0.520580,232729.000000,771668.000000
1208.215073,-0.519076,235830.000000,779246.000000
1211.727185,-0.518705,238631.000000,787828.000000
1215.234896,-0.517382,241974.000000,796435.000000
1218.738208,-0.516513,245450.000000,806262.000000
1222.237119,-0.515765,248996.000000,816503.000000
1226.895489,-0.515307,254001.000000,832037.000000
1230.384134,-0.515381,257796.000000,844611.000000
1233.868378,-0.516843,261030.000000,858091.000000
1237.348222,-0.517146,264910.000000,871454.000000
1240.823666,-0.517689,269187.000000,886631.000000
1244.294710,-0.516829,274535.000000,902458.000000
1247.761354,-0.518344,278817.000000,919737.000000
1252.376701,-0.518900,285943.000000,944452.000000
1255.833078,-0.517416,292339.000000,962282.000000
1259.285055,-0.517404,298387.000000,982163.000000
1262.732632,-0.518441,303484.000000,1001328.000000
1266.175808,-0.518320,308643.000000,1018067.000000
1269.614584,-0.517941,313923.000000,1034580.000000
1273.048961,-0.517572,319097.000000,1050738.000000
1277.621284,-0.519410,324380.000000,1072666.000000
1281.045394,-0.518222,329793.000000,1087585.000000
1284.465103,-0.519338,333450.000000,1102475.000000
1287.880412,-0.520327,337104.000000,1117098.000000
1291.291321,-0.521034,340768.000000,1131079.000000
1294.697830,-0.521130,344605.000000,1144066.000000
1299.232997,-0.521450,349244.000000,1160324.000000
1302.629239,-0.521505,352441.000000,1171094.000000
1306.021081,-0.521358,355144.000000,1179674.000000
1309.408522,-0.521198,357732.000000,1187835.000000
1312.791564,-0.521292,360160.000000,1196156.000000
1316.170205,-0.520936,362173.000000,1201855.000000
1319.544447,-0.520874,364403.000000,1209083.000000
1324.036591,-0.520724,366317.000000,1215014.000000
1327.400565,-0.521820,366589.000000,1218989.000000
1330.760139,-0.520072,368623.000000,1220828.000000
1334.115313,-0.520705,368498.000000,1222195.000000
1337.466087,-0.519156,370046.000000,1222958.000000
1340.812461,-0.518213,370709.000000,1222491.000000
1344.154435,-0.516290,371502.000000,1219695.000000
1348.603555,-0.514166,371615.000000,1214113.000000
1351.935262,-0.512935,370997.000000,1208664.000000
1355.262569,-0.509076,371791.000000,1200534.000000
1358.585475,-0.507007,370879.000000,1191898.000000
1361.903982,-0.503778,370539.000000,1181985.000000
1365.218088,-0.499951,371657.000000,1175150.000000
1369.630052,-0.496296,372397.000000,1167622.000000
1372.933891,-0.493947,372524.000000,1161720.000000
1376.233331,-0.491880,372314.000000,1155552.000000
1379.528370,-0.490734,371243.000000,1149191.000000
1382.819009,-0.490142,369231.000000,1141407.000000
1386.105248,-0.490146,367705.000000,1136698.000000
1389.387087,-0.487988,367073.000000,1129122.000000
1393.756027,-0.485976,365715.000000,1119745.000000
1397.027599,-0.483711,365152.000000,1112204.000000
1400.294771,-0.479693,365097.000000,1101797.000000
1403.557542,-0.476252,364333.000000,1090814.000000
1406.815914,-0.469879,365413.000000,1078111.000000
1410.069885,-0.463637,365734.000000,1063658.000000
1413.319456,-0.457608,364947.000000,1046738.000000
1417.645373,-0.447239,365539.000000,1023700.000000
1420.884678,-0.440065,365230.000000,1006078.000000
1424.119582,-0.432133,365533.000000,988688.000000
1427.350086,-0.427003,364906.000000,975402.000000
1430.576190,-0.420412,365583.000000,962493.000000
1433.797894,-0.415491,365648.000000,951818.000000
1437.015198,-0.410453,365698.000000,940970.000000
1441.298091,-0.406047,364890.000000,929414.000000
1444.505128,-0.403530,364741.000000,923665.000000
1447.707765,-0.399771,364393.000000,914831.000000
1450.906001,-0.397997,363044.000000,907730.000000
1454.099838,-0.394768,362635.000000,899991.000000
1457.289274,-0.391054,361653.000000,889910.000000
1461.535011,-0.386968,360303.000000,878286.000000
1464.714180,-0.384239,358064.000000,867361.000000
1467.888950,-0.379950,356949.000000,856163.000000
1471.059319,-0.375615,355912.000000,845196.000000
1474.225288,-0.372817,353737.000000,834637.000000
1477.386857,-0.367803,352477.000000,822118.000000
1480.544025,-0.366961,349693.000000,814045.000000
1484.746739,-0.362824,347943.000000,802292.000000
1487.893641,-0.363548,344781.000000,796327.000000
1491.036142,-0.363097,342531.000000,790309.000000
1494.174244,-0.362750,340170.000000,784235.000000
1497.307945,-0.363373,337701.000000,779660.000000
1500.437247,-0.365220,334446.000000,775436.000000
1503.562148,-0.365625,331876.000000,770195.000000
1507.721838,-0.368393,327918.000000,765876.000000
1510.836473,-0.369500,324967.000000,760920.000000
1513.946707,-0.371903,321718.000000,757492.000000
1517.052541,-0.371218,319073.000000,750080.000000
1520.153975,-0.372656,315575.000000,744318.000000
1523.251008,-0.375081,311252.000000,738232.000000
1527.373542,-0.374708,306492.000000,726319.000000
1530.460309,-0.374176,302471.000000,715912.000000
1533.542676,-0.373654,298873.000000,706547.000000
1536.620642,-0.374401,294593.000000,697627.000000
1539.694209,-0.373041,290524.000000,685840.000000
1542.763375,-0.375725,285805.000000,678883.000000
1545.828141,-0.373532,281854.000000,666126.000000
1549.907652,-0.377253,274841.000000,655141.000000
1552.962151,-0.377580,270515.000000,645315.000000
1556.012250,-0.380253,265203.000000,636548.000000
1559.057949,-0.381016,260042.000000,625258.000000
1562.099248,-0.380994,255973.000000,615443.000000
1565.136147,-0.383232,250523.000000,605452.000000
1568.168646,-0.383892,245616.000000,594495.000000
1572.205133,-0.385059,238774.000000,579490.000000
1575.227365,-0.385677,234179.000000,569147.000000
1578.245196,-0.387176,228934.000000,558324.000000
1581.258628,-0.388355,223478.000000,546499.000000
1584.267659,-0.389677,218239.000000,535315.000000
1587.272290,-0.391574,213357.000000,525631.000000
1591.271621,-0.392798,206678.000000,510613.000000
1594.265985,-0.398218,200655.000000,501959.000000
1597.255949,-0.400360,196105.000000,493002.000000
1600.241513,-0.403440,191413.000000,484631.000000
1603.222677,-0.408677,186271.000000,477334.000000
1606.199441,-0.412124,181567.000000,468987.000000
1609.171805,-0.416069,176656.000000,460466.000000
1613.128112,-0.422469,170106.000000,449975.000000
1616.090209,-0.425519,165195.000000,440064.000000
1619.047905,-0.428993,160661.000000,431423.000000
1622.001202,-0.435565,154762.000000,421919.000000
1624.950098,-0.441153,149284.000000,412255.000000
1627.894595,-0.446510,144304.000000,403449.000000
1630.834691,-0.450660,138573.000000,391146.000000
1634.747975,-0.461407,131373.000000,380113.000000
1637.677804,-0.466125,126061.000000,368728.000000
1640.603233,-0.477894,120043.000000,360770.000000
1643.524262,-0.485494,114222.000000,349336.000000
1646.440891,-0.490502,109595.000000,339073.000000
1649.353120,-0.498893,104146.000000,328500.000000
1653.229247,-0.488250,102337.000000,314980.000000
1656.131209,-0.483104,100118.000000,304520.000000
1659.028770,-0.489217,95076.000000,293284.000000
1661.921932,-0.476249,93881.000000,281078.000000
1664.810693,-0.473810,90392.000000,269116.000000
1667.695055,-0.476737,85969.000000,257679.000000
1670.575016,-0.473602,82225.000000,244684.000000
1674.408120,-0.454164,78925.000000,224584.000000
1677.277814,-inf,0.000000,207294.000000
1680.143108,-inf,0.000000,186678.000000
1683.004002,nan,-2147483648.000000,166213.000000
1685.860496,nan,-2147483648.000000,144486.000000
1688.712590,nan,-2147483648.000000,123886.000000
1691.560283,nan,-2147483648.000000,105756.000000
1695.350364,nan,-2147483648.000000,82668.000000
1698.187790,nan,-2147483648.000000,69281.000000
1701.020817,-inf,0.000000,59532.000000
