Method:,erol,,
Host Date-Time:,7/12/23 @ 14:18:6,,
Header Version:,1,,
System Temp (C):,40.78,,
Detector Temp (C):,26.49,,
Humidity (%):,16.27,,
Lamp PD:,3563,,
Shift Vector Coefficients:,-4.80707,0.053312,-0.000138677,,
Pixel to Wavelength Coefficients:,1763.6,-0.910608,-0.000244451,,
Serial Number:,6110061,,
Scan Config Name:,erol,,
Scan Config Type:,Slew,,
Section 1,,
Start wavelength (nm):,900,,
End wavelength (nm):,1700,,
Pattern Pixel Width (nm):,  11.71,,,,
Exposure (ms):,  0.635,,,,
Digital Resolution:,228,,
Num Repeats:,1,,
PGA Gain:,64,,
Total Measurement Time in sec:,  1.593,,
Wavelength (nm),Absorbance (AU),Reference Signal (unitless),Sample Signal (unitless)
901.370984,-0.744283,22318.000000,123862.000000
905.248306,-0.731200,26694.000000,143752.000000
909.121227,-0.721759,30240.000000,159346.000000
912.989749,-0.693286,35053.000000,172986.000000
918.140932,-0.687540,39668.000000,193188.000000
921.999187,-0.681000,44171.000000,211903.000000
925.853041,-0.675964,49463.000000,234555.000000
929.702495,-0.674452,55176.000000,260737.000000
933.547549,-0.668507,62603.000000,291811.000000
937.388203,-0.662807,70557.000000,324599.000000
941.224457,-0.656304,79215.000000,359014.000000
946.332618,-0.648659,90003.000000,400789.000000
950.158605,-0.646573,97001.000000,429882.000000
953.980191,-0.640957,104340.000000,456465.000000
957.797378,-0.636808,111157.000000,481665.000000
961.610165,-0.635628,117414.000000,507397.000000
965.418551,-0.632560,124361.000000,533635.000000
969.222537,-0.628832,131496.000000,559428.000000
974.287675,-0.626339,140925.000000,596111.000000
978.081394,-0.625131,148023.000000,624396.000000
981.870713,-0.624037,155197.000000,653010.000000
985.655632,-0.623163,162010.000000,680307.000000
989.436151,-0.619926,170019.000000,708636.000000
993.212270,-0.620327,176266.000000,735352.000000
998.240251,-0.618045,184964.000000,767595.000000
1002.006103,-0.616629,190519.000000,788074.000000
1005.767554,-0.614285,196102.000000,806803.000000
1009.524606,-0.613566,200098.000000,821881.000000
1013.277258,-0.611510,204164.000000,834620.000000
1017.025509,-0.611349,206631.000000,844392.000000
1020.769360,-0.609977,209246.000000,852381.000000
1025.754318,-0.607945,211932.000000,859294.000000
1029.487902,-0.606154,213316.000000,861345.000000
1033.217086,-0.606307,213821.000000,863689.000000
1036.941870,-0.605826,213615.000000,861902.000000
1040.662255,-0.604769,213930.000000,861075.000000
1044.378238,-0.603510,213905.000000,858482.000000
1048.089822,-0.603554,213173.000000,855631.000000
1053.031756,-0.601837,211884.000000,847101.000000
1056.733073,-0.601023,211098.000000,842379.000000
1060.429990,-0.601202,209880.000000,837864.000000
1064.122506,-0.600848,209078.000000,833982.000000
1067.810623,-0.600335,208224.000000,829594.000000
1071.494339,-0.601399,206922.000000,826430.000000
1076.399116,-0.600436,206676.000000,823619.000000
1080.072566,-0.600382,206200.000000,821619.000000
1083.741615,-0.601489,205636.000000,821463.000000
1087.406264,-0.599344,205874.000000,818363.000000
1091.066513,-0.598941,205797.000000,817298.000000
1094.722362,-0.600687,205514.000000,819461.000000
1098.373811,-0.600399,205628.000000,819373.000000
1103.235565,-0.598272,206788.000000,819969.000000
1106.876747,-0.600419,206389.000000,822443.000000
1110.513529,-0.599282,206615.000000,821191.000000
1114.145910,-0.599948,206738.000000,822941.000000
1117.773892,-0.600712,206547.000000,823628.000000
1121.397473,-0.599561,207088.000000,823600.000000
1125.016654,-0.601459,206464.000000,824713.000000
1129.835385,-0.599780,207418.000000,825328.000000
1133.444299,-0.599702,207695.000000,826282.000000
1137.048813,-0.598072,208493.000000,826348.000000
1140.648927,-0.598465,208223.000000,826026.000000
1144.244641,-0.597650,208337.000000,824929.000000
1147.835955,-0.596329,208774.000000,824149.000000
1152.617529,-0.596049,208238.000000,821503.000000
1156.198576,-0.594556,208484.000000,819650.000000
1159.775223,-0.593870,208962.000000,820234.000000
1163.347470,-0.592723,209317.000000,819460.000000
1166.915316,-0.591156,209935.000000,818918.000000
1170.478763,-0.587846,211435.000000,818507.000000
1174.037809,-0.584535,213105.000000,818707.000000
1178.776359,-0.582403,214394.000000,819625.000000
1182.325139,-0.574763,217962.000000,818736.000000
1185.869518,-0.570982,220075.000000,819508.000000
1189.409497,-0.566634,222694.000000,820998.000000
1192.945076,-0.565237,224594.000000,825345.000000
1196.476255,-0.561975,226828.000000,827317.000000
1200.003034,-0.559679,229675.000000,833283.000000
1204.698561,-0.557969,232729.000000,841046.000000
1208.215073,-0.556320,235830.000000,849022.000000
1211.727185,-0.555860,238631.000000,858196.000000
1215.234896,-0.554428,241974.000000,867355.000000
1218.738208,-0.552873,245450.000000,876670.000000
1222.237119,-0.552460,248996.000000,888490.000000
1226.895489,-0.552794,254001.000000,907046.000000
1230.384134,-0.552226,257796.000000,919396.000000
1233.868378,-0.554435,261030.000000,935675.000000
1237.348222,-0.554671,264910.000000,950100.000000
1240.823666,-0.555517,269187.000000,967321.000000
1244.294710,-0.555399,274535.000000,986271.000000
1247.761354,-0.556747,278817.000000,1004768.000000
1252.376701,-0.557344,285943.000000,1031866.000000
1255.833078,-0.556499,292339.000000,1052896.000000
1259.285055,-0.556827,298387.000000,1075491.000000
1262.732632,-0.557055,303484.000000,1094437.000000
1266.175808,-0.557929,308643.000000,1115285.000000
1269.614584,-0.557239,313923.000000,1132563.000000
1273.048961,-0.557295,319097.000000,1151378.000000
1277.621284,-0.558957,324380.000000,1174928.000000
1281.045394,-0.558473,329793.000000,1193204.000000
1284.465103,-0.560360,333450.000000,1211689.000000
1287.880412,-0.561518,337104.000000,1228236.000000
1291.291321,-0.562285,340768.000000,1243781.000000
1294.697830,-0.562961,344605.000000,1259745.000000
1299.232997,-0.563583,349244.000000,1278532.000000
1302.629239,-0.563802,352441.000000,1290889.000000
1306.021081,-0.563403,355144.000000,1299593.000000
1309.408522,-0.563713,357732.000000,1309997.000000
1312.791564,-0.563555,360160.000000,1318411.000000
1316.170205,-0.563306,362173.000000,1325019.000000
1319.544447,-0.562825,364403.000000,1331701.000000
1324.036591,-0.562917,366317.000000,1338979.000000
1327.400565,-0.563173,366589.000000,1340763.000000
1330.760139,-0.561021,368623.000000,1341539.000000
1334.115313,-0.561304,368498.000000,1341958.000000
1337.466087,-0.559184,370046.000000,1341034.000000
1340.812461,-0.557919,370709.000000,1339528.000000
1344.154435,-0.555864,371502.000000,1336058.000000
1348.603555,-0.552320,371615.000000,1325601.000000
1351.935262,-0.550029,370997.000000,1316434.000000
1355.262569,-0.545431,371791.000000,1305360.000000
1358.585475,-0.542391,370879.000000,1293074.000000
1361.903982,-0.538579,370539.000000,1280597.000000
1365.218088,-0.533287,371657.000000,1268906.000000
1369.630052,-0.527916,372397.000000,1255805.000000
1372.933891,-0.525473,372524.000000,1249185.000000
1376.233331,-0.523041,372314.000000,1241510.000000
1379.528370,-0.521963,371243.000000,1234871.000000
1382.819009,-0.521529,369231.000000,1226952.000000
1386.105248,-0.520222,367705.000000,1218208.000000
1389.387087,-0.517844,367073.000000,1209475.000000
1393.756027,-0.514966,365715.000000,1197040.000000
1397.027599,-0.511072,365152.000000,1184530.000000
1400.294771,-0.506308,365097.000000,1171429.000000
1403.557542,-0.501627,364333.000000,1156447.000000
1406.815914,-0.493777,365413.000000,1139097.000000
1410.069885,-0.485475,365734.000000,1118510.000000
1413.319456,-0.478398,364947.000000,1098065.000000
1417.645373,-0.464966,365539.000000,1066350.000000
1420.884678,-0.456470,365230.000000,1044807.000000
1424.119582,-0.447281,365533.000000,1023782.000000
1427.350086,-0.440142,364906.000000,1005364.000000
1430.576190,-0.432699,365583.000000,990114.000000
1433.797894,-0.425924,365648.000000,974961.000000
1437.015198,-0.420895,365698.000000,963869.000000
1441.298091,-0.416144,364890.000000,951274.000000
1444.505128,-0.412334,364741.000000,942581.000000
1447.707765,-0.409263,364393.000000,935047.000000
1450.906001,-0.406268,363044.000000,925182.000000
1454.099838,-0.402503,362635.000000,916162.000000
1457.289274,-0.399128,361653.000000,906610.000000
1461.535011,-0.394351,360303.000000,893345.000000
1464.714180,-0.390860,358064.000000,880686.000000
1467.888950,-0.386349,356949.000000,868870.000000
1471.059319,-0.381557,355912.000000,856840.000000
1474.225288,-0.377412,353737.000000,843514.000000
1477.386857,-0.373292,352477.000000,832573.000000
1480.544025,-0.371957,349693.000000,823463.000000
1484.746739,-0.367367,347943.000000,810728.000000
1487.893641,-0.368095,344781.000000,804708.000000
1491.036142,-0.367525,342531.000000,798408.000000
1494.174244,-0.367579,340170.000000,793003.000000
1497.307945,-0.367834,337701.000000,787710.000000
1500.437247,-0.369533,334446.000000,783175.000000
1503.562148,-0.370688,331876.000000,779226.000000
1507.721838,-0.372709,327918.000000,773525.000000
1510.836473,-0.374273,324967.000000,769330.000000
1513.946707,-0.377212,321718.000000,766810.000000
1517.052541,-0.377239,319073.000000,760553.000000
1520.153975,-0.378296,315575.000000,754048.000000
1523.251008,-0.380010,311252.000000,746659.000000
1527.373542,-0.380289,306492.000000,735712.000000
1530.460309,-0.380085,302471.000000,725719.000000
1533.542676,-0.379243,298873.000000,715698.000000
1536.620642,-0.378880,294593.000000,704859.000000
1539.694209,-0.379873,290524.000000,696714.000000
1542.763375,-0.380803,285805.000000,686868.000000
1545.828141,-0.380350,281854.000000,676665.000000
1549.907652,-0.382524,274841.000000,663140.000000
1552.962151,-0.383436,270515.000000,654075.000000
1556.012250,-0.385934,265203.000000,644930.000000
1559.057949,-0.387288,260042.000000,634354.000000
1562.099248,-0.387819,255973.000000,625192.000000
1565.136147,-0.389845,250523.000000,614742.000000
1568.168646,-0.390091,245616.000000,603042.000000
1572.205133,-0.392324,238774.000000,589266.000000
1575.227365,-0.392766,234179.000000,578514.000000
1578.245196,-0.393258,228934.000000,566198.000000
1581.258628,-0.394998,223478.000000,554923.000000
1584.267659,-0.395843,218239.000000,542969.000000
1587.272290,-0.397860,213357.000000,533294.000000
1591.271621,-0.400306,206678.000000,519518.000000
1594.265985,-0.405463,200655.000000,510403.000000
1597.255949,-0.408532,196105.000000,502366.000000
1600.241513,-0.411797,191413.000000,494047.000000
1603.222677,-0.416912,186271.000000,486471.000000
1606.199441,-0.421409,181567.000000,479122.000000
1609.171805,-0.426488,176656.000000,471646.000000
1613.128112,-0.431772,170106.000000,459718.000000
1616.090209,-0.436237,165195.000000,451060.000000
1619.047905,-0.441940,160661.000000,444478.000000
1622.001202,-0.447398,154762.000000,433573.000000
1624.950098,-0.455253,149284.000000,425859.000000
1627.894595,-0.459337,144304.000000,415542.000000
1630.834691,-0.467523,138573.000000,406632.000000
1634.747975,-0.477045,131373.000000,394050.000000
1637.677804,-0.484013,126061.000000,384232.000000
1640.603233,-0.492850,120043.000000,373411.000000
1643.524262,-0.503087,114222.000000,363778.000000
1646.440891,-0.507071,109595.000000,352259.000000
1649.353120,-0.516218,104146.000000,341870.000000
1653.229247,-0.505914,102337.000000,328055.000000
1656.131209,-0.501245,100118.000000,317510.000000
1659.028770,-0.507560,95076.000000,305936.000000
1661.921932,-0.497274,93881.000000,295020.000000
1664.810693,-0.495047,90392.000000,282603.000000
1667.695055,-0.497035,85969.000000,270008.000000
1670.575016,-0.492678,82225.000000,255671.000000
1674.408120,-0.472152,78925.000000,234081.000000
1677.277814,-inf,0.000000,215818.000000
1680.143108,-inf,0.000000,195805.000000
1683.004002,nan,-2147483648.000000,173474.000000
1685.860496,nan,-2147483648.000000,152300.000000
1688.712590,nan,-2147483648.000000,128842.000000
1691.560283,nan,-2147483648.000000,109095.000000
1695.350364,nan,-2147483648.000000,85695.000000
1698.187790,nan,-2147483648.000000,71443.000000
1701.020817,-inf,0.000000,60430.000000
