Method:,erol,,
Host Date-Time:,7/12/23 @ 14:3:8,,
Header Version:,1,,
System Temp (C):,40.24,,
Detector Temp (C):,27.22,,
Humidity (%):,17.44,,
Lamp PD:,3283,,
Shift Vector Coefficients:,-4.80707,0.053312,-0.000138677,,
Pixel to Wavelength Coefficients:,1763.6,-0.910608,-0.000244451,,
Serial Number:,6110061,,
Scan Config Name:,erol,,
Scan Config Type:,Slew,,
Section 1,,
Start wavelength (nm):,900,,
End wavelength (nm):,1700,,
Pattern Pixel Width (nm):,  11.71,,,,
Exposure (ms):,  0.635,,,,
Digital Resolution:,228,,
Num Repeats:,1,,
PGA Gain:,64,,
Total Measurement Time in sec:,  1.640,,
Wavelength (nm),Absorbance (AU),Reference Signal (unitless),Sample Signal (unitless)
901.370984,-0.762738,22318.000000,129239.000000
905.248306,-0.750146,26694.000000,150162.000000
909.121227,-0.742504,30240.000000,167142.000000
912.989749,-0.715411,35053.000000,182027.000000
918.140932,-0.710900,39668.000000,203864.000000
921.999187,-0.704771,44171.000000,223825.000000
925.853041,-0.701226,49463.000000,248603.000000
929.702495,-0.699445,55176.000000,276182.000000
933.547549,-0.692977,62603.000000,308725.000000
937.388203,-0.689284,70557.000000,345004.000000
941.224457,-0.680940,79215.000000,379968.000000
946.332618,-0.675117,90003.000000,425965.000000
950.158605,-0.671055,97001.000000,454811.000000
953.980191,-0.665927,104340.000000,483479.000000
957.797378,-0.662207,111157.000000,510674.000000
961.610165,-0.660406,117414.000000,537188.000000
965.418551,-0.656700,124361.000000,564137.000000
969.222537,-0.654236,131496.000000,593128.000000
974.287675,-0.650764,140925.000000,630597.000000
978.081394,-0.649848,148023.000000,660963.000000
981.870713,-0.648078,155197.000000,690178.000000
985.655632,-0.647897,162010.000000,720177.000000
989.436151,-0.643807,170019.000000,748695.000000
993.212270,-0.643407,176266.000000,775489.000000
998.240251,-0.640681,184964.000000,808664.000000
1002.006103,-0.639476,190519.000000,830643.000000
1005.767554,-0.637224,196102.000000,850562.000000
1009.524606,-0.635899,200098.000000,865251.000000
1013.277258,-0.634018,204164.000000,879017.000000
1017.025509,-0.634058,206631.000000,889721.000000
1020.769360,-0.632706,209246.000000,898179.000000
1025.754318,-0.629869,211932.000000,903786.000000
1029.487902,-0.628530,213316.000000,906887.000000
1033.217086,-0.628298,213821.000000,908550.000000
1036.941870,-0.628708,213615.000000,908530.000000
1040.662255,-0.627257,213930.000000,906835.000000
1044.378238,-0.625833,213905.000000,903762.000000
1048.089822,-0.626012,213173.000000,901040.000000
1053.031756,-0.625128,211884.000000,893771.000000
1056.733073,-0.624457,211098.000000,889081.000000
1060.429990,-0.624359,209880.000000,883752.000000
1064.122506,-0.623075,209078.000000,877775.000000
1067.810623,-0.622568,208224.000000,873170.000000
1071.494339,-0.622941,206922.000000,868455.000000
1076.399116,-0.622400,206676.000000,866343.000000
1080.072566,-0.622944,206200.000000,865432.000000
1083.741615,-0.622674,205636.000000,862528.000000
1087.406264,-0.622147,205874.000000,862479.000000
1091.066513,-0.620947,205797.000000,859778.000000
1094.722362,-0.622914,205514.000000,862492.000000
1098.373811,-0.622840,205628.000000,862825.000000
1103.235565,-0.621149,206788.000000,864320.000000
1106.876747,-0.621669,206389.000000,863686.000000
1110.513529,-0.621246,206615.000000,863790.000000
1114.145910,-0.621531,206738.000000,864870.000000
1117.773892,-0.622515,206547.000000,866031.000000
1121.397473,-0.622100,207088.000000,867470.000000
1125.016654,-0.623840,206464.000000,868330.000000
1129.835385,-0.622126,207418.000000,868905.000000
1133.444299,-0.621576,207695.000000,868965.000000
1137.048813,-0.619775,208493.000000,868693.000000
1140.648927,-0.619973,208223.000000,867964.000000
1144.244641,-0.619100,208337.000000,866696.000000
1147.835955,-0.616959,208774.000000,864242.000000
1152.617529,-0.617696,208238.000000,863487.000000
1156.198576,-0.616137,208484.000000,861410.000000
1159.775223,-0.614454,208962.000000,860046.000000
1163.347470,-0.613413,209317.000000,859444.000000
1166.915316,-0.611499,209935.000000,858190.000000
1170.478763,-0.607590,211435.000000,856577.000000
1174.037809,-0.604597,213105.000000,857414.000000
1178.776359,-0.601309,214394.000000,856094.000000
1182.325139,-0.594295,217962.000000,856399.000000
1185.869518,-0.591272,220075.000000,858702.000000
1189.409497,-0.587449,222694.000000,861306.000000
1192.945076,-0.584851,224594.000000,863474.000000
1196.476255,-0.582966,226828.000000,868286.000000
1200.003034,-0.580012,229675.000000,873225.000000
1204.698561,-0.578838,232729.000000,882446.000000
1208.215073,-0.576816,235830.000000,890052.000000
1211.727185,-0.576569,238631.000000,900111.000000
1215.234896,-0.574761,241974.000000,908928.000000
1218.738208,-0.573987,245450.000000,920344.000000
1222.237119,-0.573207,248996.000000,931964.000000
1226.895489,-0.572109,254001.000000,948298.000000
1230.384134,-0.572358,257796.000000,963017.000000
1233.868378,-0.574007,261030.000000,978808.000000
1237.348222,-0.575456,264910.000000,996677.000000
1240.823666,-0.575803,269187.000000,1013577.000000
1244.294710,-0.575463,274535.000000,1032906.000000
1247.761354,-0.577631,278817.000000,1054265.000000
1252.376701,-0.578216,285943.000000,1082669.000000
1255.833078,-0.577923,292339.000000,1106138.000000
1259.285055,-0.577673,298387.000000,1128373.000000
1262.732632,-0.578442,303484.000000,1149681.000000
1266.175808,-0.578985,308643.000000,1170688.000000
1269.614584,-0.578783,313923.000000,1190162.000000
1273.048961,-0.578637,319097.000000,1209372.000000
1277.621284,-0.580768,324380.000000,1235440.000000
1281.045394,-0.579680,329793.000000,1252914.000000
1284.465103,-0.581430,333450.000000,1271924.000000
1287.880412,-0.582571,337104.000000,1289242.000000
1291.291321,-0.583372,340768.000000,1305662.000000
1294.697830,-0.583262,344605.000000,1320029.000000
1299.232997,-0.584252,349244.000000,1340852.000000
1302.629239,-0.584273,352441.000000,1353193.000000
1306.021081,-0.584244,355144.000000,1363480.000000
1309.408522,-0.583872,357732.000000,1372239.000000
1312.791564,-0.583862,360160.000000,1381522.000000
1316.170205,-0.583766,362173.000000,1388934.000000
1319.544447,-0.583194,364403.000000,1395647.000000
1324.036591,-0.582740,366317.000000,1401513.000000
1327.400565,-0.583743,366589.000000,1405798.000000
1330.760139,-0.581275,368623.000000,1405585.000000
1334.115313,-0.581601,368498.000000,1406163.000000
1337.466087,-0.579343,370046.000000,1404750.000000
1340.812461,-0.577510,370709.000000,1401338.000000
1344.154435,-0.575218,371502.000000,1396944.000000
1348.603555,-0.571805,371615.000000,1386432.000000
1351.935262,-0.569214,370997.000000,1375891.000000
1355.262569,-0.564202,371791.000000,1363015.000000
1358.585475,-0.560738,370879.000000,1348871.000000
1361.903982,-0.556720,370539.000000,1335224.000000
1365.218088,-0.551335,371657.000000,1322749.000000
1369.630052,-0.546668,372397.000000,1311215.000000
1372.933891,-0.544037,372524.000000,1303742.000000
1376.233331,-0.541606,372314.000000,1295733.000000
1379.528370,-0.540487,371243.000000,1288681.000000
1382.819009,-0.539756,369231.000000,1279541.000000
1386.105248,-0.538822,367705.000000,1271516.000000
1389.387087,-0.535770,367073.000000,1260442.000000
1393.756027,-0.531934,365715.000000,1244735.000000
1397.027599,-0.527811,365152.000000,1231075.000000
1400.294771,-0.522691,365097.000000,1216464.000000
1403.557542,-0.516883,364333.000000,1197792.000000
1406.815914,-0.508766,365413.000000,1179099.000000
1410.069885,-0.500439,365734.000000,1157723.000000
1413.319456,-0.491676,364947.000000,1132154.000000
1417.645373,-0.479057,365539.000000,1101517.000000
1420.884678,-0.469529,365230.000000,1076703.000000
1424.119582,-0.460687,365533.000000,1055877.000000
1427.350086,-0.453391,364906.000000,1036506.000000
1430.576190,-0.445016,365583.000000,1018595.000000
1433.797894,-0.438974,365648.000000,1004701.000000
1437.015198,-0.434002,365698.000000,993401.000000
1441.298091,-0.428966,364890.000000,979778.000000
1444.505128,-0.425025,364741.000000,970531.000000
1447.707765,-0.421494,364393.000000,961753.000000
1450.906001,-0.419421,363044.000000,953630.000000
1454.099838,-0.415466,362635.000000,943921.000000
1457.289274,-0.412263,361653.000000,934447.000000
1461.535011,-0.406729,360303.000000,919172.000000
1464.714180,-0.404352,358064.000000,908474.000000
1467.888950,-0.399722,356949.000000,896042.000000
1471.059319,-0.395100,355912.000000,883981.000000
1474.225288,-0.392440,353737.000000,873214.000000
1477.386857,-0.389028,352477.000000,863294.000000
1480.544025,-0.388287,349693.000000,855015.000000
1484.746739,-0.384743,347943.000000,843822.000000
1487.893641,-0.385297,344781.000000,837222.000000
1491.036142,-0.385487,342531.000000,832122.000000
1494.174244,-0.385663,340170.000000,826721.000000
1497.307945,-0.385882,337701.000000,821134.000000
1500.437247,-0.388096,334446.000000,817376.000000
1503.562148,-0.390053,331876.000000,814759.000000
1507.721838,-0.392643,327918.000000,809856.000000
1510.836473,-0.394483,324967.000000,805976.000000
1513.946707,-0.397111,321718.000000,802762.000000
1517.052541,-0.397762,319073.000000,797355.000000
1520.153975,-0.399533,315575.000000,791836.000000
1523.251008,-0.400892,311252.000000,783438.000000
1527.373542,-0.401374,306492.000000,772312.000000
1530.460309,-0.401438,302471.000000,762292.000000
1533.542676,-0.400874,298873.000000,752247.000000
1536.620642,-0.401372,294593.000000,742325.000000
1539.694209,-0.401691,290524.000000,732610.000000
1542.763375,-0.402654,285805.000000,722311.000000
1545.828141,-0.402134,281854.000000,711472.000000
1549.907652,-0.404979,274841.000000,698330.000000
1552.962151,-0.405540,270515.000000,688227.000000
1556.012250,-0.408932,265203.000000,680003.000000
1559.057949,-0.410029,260042.000000,668455.000000
1562.099248,-0.409113,255973.000000,656610.000000
1565.136147,-0.411609,250523.000000,646334.000000
1568.168646,-0.413609,245616.000000,636599.000000
1572.205133,-0.415014,238774.000000,620870.000000
1575.227365,-0.416039,234179.000000,610361.000000
1578.245196,-0.417316,228934.000000,598448.000000
1581.258628,-0.419818,223478.000000,587561.000000
1584.267659,-0.421870,218239.000000,576504.000000
1587.272290,-0.423581,213357.000000,565832.000000
1591.271621,-0.425950,206678.000000,551117.000000
1594.265985,-0.431419,200655.000000,541838.000000
1597.255949,-0.434137,196105.000000,532875.000000
1600.241513,-0.435785,191413.000000,522103.000000
1603.222677,-0.441906,186271.000000,515290.000000
1606.199441,-0.445545,181567.000000,506503.000000
1609.171805,-0.449431,176656.000000,497232.000000
1613.128112,-0.454395,170106.000000,484300.000000
1616.090209,-0.458720,165195.000000,475025.000000
1619.047905,-0.461790,160661.000000,465265.000000
1622.001202,-0.469984,154762.000000,456718.000000
1624.950098,-0.475312,149284.000000,445990.000000
1627.894595,-0.480668,144304.000000,436462.000000
1630.834691,-0.487356,138573.000000,425632.000000
1634.747975,-0.496452,131373.000000,412058.000000
1637.677804,-0.502792,126061.000000,401211.000000
1640.603233,-0.512239,120043.000000,390459.000000
1643.524262,-0.520653,114222.000000,378794.000000
1646.440891,-0.525774,109595.000000,367760.000000
1649.353120,-0.534085,104146.000000,356228.000000
1653.229247,-0.522621,102337.000000,340921.000000
1656.131209,-0.516808,100118.000000,329094.000000
1659.028770,-0.523507,95076.000000,317379.000000
1661.921932,-0.511745,93881.000000,305016.000000
1664.810693,-0.510677,90392.000000,292959.000000
1667.695055,-0.510213,85969.000000,278327.000000
1670.575016,-0.506142,82225.000000,263722.000000
1674.408120,-0.486188,78925.000000,241770.000000
1677.277814,-inf,0.000000,221820.000000
1680.143108,-inf,0.000000,200202.000000
1683.004002,nan,-2147483648.000000,176311.000000
1685.860496,nan,-2147483648.000000,153371.000000
1688.712590,nan,-2147483648.000000,129744.000000
1691.560283,nan,-2147483648.000000,110105.000000
1695.350364,nan,-2147483648.000000,87519.000000
1698.187790,nan,-2147483648.000000,71940.000000
1701.020817,-inf,0.000000,60364.000000
