Method:,erol,,
Host Date-Time:,7/12/23 @ 14:6:49,,
Header Version:,1,,
System Temp (C):,40.59,,
Detector Temp (C):,26.28,,
Humidity (%):,17.16,,
Lamp PD:,3492,,
Shift Vector Coefficients:,-4.80707,0.053312,-0.000138677,,
Pixel to Wavelength Coefficients:,1763.6,-0.910608,-0.000244451,,
Serial Number:,6110061,,
Scan Config Name:,erol,,
Scan Config Type:,Slew,,
Section 1,,
Start wavelength (nm):,900,,
End wavelength (nm):,1700,,
Pattern Pixel Width (nm):,  11.71,,,,
Exposure (ms):,  0.635,,,,
Digital Resolution:,228,,
Num Repeats:,1,,
PGA Gain:,64,,
Total Measurement Time in sec:,  1.592,,
Wavelength (nm),Absorbance (AU),Reference Signal (unitless),Sample Signal (unitless)
901.370984,-0.738824,22318.000000,122315.000000
905.248306,-0.727346,26694.000000,142482.000000
909.121227,-0.719990,30240.000000,158698.000000
912.989749,-0.693752,35053.000000,173172.000000
918.140932,-0.684897,39668.000000,192016.000000
921.999187,-0.681145,44171.000000,211974.000000
925.853041,-0.675375,49463.000000,234237.000000
929.702495,-0.674554,55176.000000,260798.000000
933.547549,-0.668102,62603.000000,291539.000000
937.388203,-0.664383,70557.000000,325779.000000
941.224457,-0.656106,79215.000000,358850.000000
946.332618,-0.649696,90003.000000,401747.000000
950.158605,-0.646445,97001.000000,429755.000000
953.980191,-0.640580,104340.000000,456069.000000
957.797378,-0.637906,111157.000000,482884.000000
961.610165,-0.635874,117414.000000,507685.000000
965.418551,-0.633009,124361.000000,534187.000000
969.222537,-0.629759,131496.000000,560624.000000
974.287675,-0.626401,140925.000000,596196.000000
978.081394,-0.624722,148023.000000,623808.000000
981.870713,-0.621975,155197.000000,649918.000000
985.655632,-0.621451,162010.000000,677630.000000
989.436151,-0.617532,170019.000000,704741.000000
993.212270,-0.617180,176266.000000,730044.000000
998.240251,-0.614143,184964.000000,760729.000000
1002.006103,-0.612463,190519.000000,780551.000000
1005.767554,-0.609453,196102.000000,797875.000000
1009.524606,-0.608775,200098.000000,812864.000000
1013.277258,-0.607057,204164.000000,826107.000000
1017.025509,-0.606347,206631.000000,834724.000000
1020.769360,-0.604691,209246.000000,842069.000000
1025.754318,-0.602902,211932.000000,849373.000000
1029.487902,-0.600677,213316.000000,850552.000000
1033.217086,-0.601202,213821.000000,853596.000000
1036.941870,-0.600691,213615.000000,851770.000000
1040.662255,-0.599244,213930.000000,850189.000000
1044.378238,-0.598313,213905.000000,848270.000000
1048.089822,-0.597621,213173.000000,844020.000000
1053.031756,-0.596679,211884.000000,837100.000000
1056.733073,-0.595614,211098.000000,831951.000000
1060.429990,-0.595855,209880.000000,827611.000000
1064.122506,-0.594507,209078.000000,821894.000000
1067.810623,-0.593800,208224.000000,817204.000000
1071.494339,-0.595590,206922.000000,815449.000000
1076.399116,-0.593750,206676.000000,811035.000000
1080.072566,-0.594183,206200.000000,809975.000000
1083.741615,-0.594091,205636.000000,807589.000000
1087.406264,-0.593724,205874.000000,807840.000000
1091.066513,-0.592040,205797.000000,804412.000000
1094.722362,-0.593552,205514.000000,806109.000000
1098.373811,-0.593994,205628.000000,807377.000000
1103.235565,-0.591202,206788.000000,806729.000000
1106.876747,-0.592949,206389.000000,808417.000000
1110.513529,-0.592765,206615.000000,808959.000000
1114.145910,-0.592687,206738.000000,809296.000000
1117.773892,-0.594038,206547.000000,811068.000000
1121.397473,-0.592937,207088.000000,811133.000000
1125.016654,-0.594137,206464.000000,810926.000000
1129.835385,-0.592722,207418.000000,812023.000000
1133.444299,-0.592592,207695.000000,812865.000000
1137.048813,-0.590362,208493.000000,811808.000000
1140.648927,-0.590720,208223.000000,811426.000000
1144.244641,-0.589120,208337.000000,808885.000000
1147.835955,-0.587882,208774.000000,808273.000000
1152.617529,-0.588787,208238.000000,807881.000000
1156.198576,-0.586360,208484.000000,804327.000000
1159.775223,-0.584476,208962.000000,802681.000000
1163.347470,-0.584027,209317.000000,803214.000000
1166.915316,-0.581954,209935.000000,801749.000000
1170.478763,-0.578449,211435.000000,800987.000000
1174.037809,-0.575344,213105.000000,801563.000000
1178.776359,-0.573055,214394.000000,802173.000000
1182.325139,-0.565955,217962.000000,802299.000000
1185.869518,-0.562401,220075.000000,803473.000000
1189.409497,-0.557940,222694.000000,804727.000000
1192.945076,-0.555058,224594.000000,806224.000000
1196.476255,-0.553358,226828.000000,811063.000000
1200.003034,-0.551112,229675.000000,817006.000000
1204.698561,-0.549425,232729.000000,824662.000000
1208.215073,-0.547862,235830.000000,832648.000000
1211.727185,-0.546792,238631.000000,840464.000000
1215.234896,-0.545752,241974.000000,850200.000000
1218.738208,-0.543883,245450.000000,858709.000000
1222.237119,-0.543600,248996.000000,870547.000000
1226.895489,-0.543224,254001.000000,887277.000000
1230.384134,-0.543278,257796.000000,900646.000000
1233.868378,-0.545247,261030.000000,916088.000000
1237.348222,-0.545448,264910.000000,930135.000000
1240.823666,-0.546495,269187.000000,947434.000000
1244.294710,-0.546010,274535.000000,965178.000000
1247.761354,-0.547347,278817.000000,983256.000000
1252.376701,-0.547633,285943.000000,1009050.000000
1255.833078,-0.546733,292339.000000,1029484.000000
1259.285055,-0.547113,298387.000000,1051703.000000
1262.732632,-0.547846,303484.000000,1071475.000000
1266.175808,-0.548077,308643.000000,1090269.000000
1269.614584,-0.547496,313923.000000,1107436.000000
1273.048961,-0.548044,319097.000000,1127110.000000
1277.621284,-0.548901,324380.000000,1148035.000000
1281.045394,-0.548386,329793.000000,1165809.000000
1284.465103,-0.549803,333450.000000,1182590.000000
1287.880412,-0.550896,337104.000000,1198560.000000
1291.291321,-0.551979,340768.000000,1214614.000000
1294.697830,-0.551832,344605.000000,1227873.000000
1299.232997,-0.552232,349244.000000,1245548.000000
1302.629239,-0.552500,352441.000000,1257726.000000
1306.021081,-0.552431,355144.000000,1267171.000000
1309.408522,-0.551624,357732.000000,1274036.000000
1312.791564,-0.551656,360160.000000,1282777.000000
1316.170205,-0.552055,362173.000000,1291132.000000
1319.544447,-0.550894,364403.000000,1295616.000000
1324.036591,-0.551192,366317.000000,1303314.000000
1327.400565,-0.550923,366589.000000,1303475.000000
1330.760139,-0.548644,368623.000000,1303845.000000
1334.115313,-0.548883,368498.000000,1304122.000000
1337.466087,-0.546693,370046.000000,1303014.000000
1340.812461,-0.544893,370709.000000,1299947.000000
1344.154435,-0.542362,371502.000000,1295160.000000
1348.603555,-0.538971,371615.000000,1285478.000000
1351.935262,-0.536455,370997.000000,1275927.000000
1355.262569,-0.531551,371791.000000,1264298.000000
1358.585475,-0.528445,370879.000000,1252210.000000
1361.903982,-0.525009,370539.000000,1241202.000000
1365.218088,-0.519278,371657.000000,1228627.000000
1369.630052,-0.514809,372397.000000,1218470.000000
1372.933891,-0.512001,372524.000000,1211031.000000
1376.233331,-0.509952,372314.000000,1204650.000000
1379.528370,-0.508264,371243.000000,1196526.000000
1382.819009,-0.507179,369231.000000,1187071.000000
1386.105248,-0.505704,367705.000000,1178159.000000
1389.387087,-0.502222,367073.000000,1166742.000000
1393.756027,-0.498218,365715.000000,1151757.000000
1397.027599,-0.493710,365152.000000,1138108.000000
1400.294771,-0.487795,365097.000000,1122543.000000
1403.557542,-0.482081,364333.000000,1105553.000000
1406.815914,-0.472937,365413.000000,1085727.000000
1410.069885,-0.463586,365734.000000,1063533.000000
1413.319456,-0.455312,364947.000000,1041218.000000
1417.645373,-0.440076,365539.000000,1006954.000000
1420.884678,-0.430635,365230.000000,984467.000000
1424.119582,-0.420816,365533.000000,963259.000000
1427.350086,-0.412583,364906.000000,943548.000000
1430.576190,-0.404144,365583.000000,927108.000000
1433.797894,-0.398070,365648.000000,914393.000000
1437.015198,-0.391730,365698.000000,901266.000000
1441.298091,-0.386357,364890.000000,888217.000000
1444.505128,-0.382284,364741.000000,879567.000000
1447.707765,-0.379051,364393.000000,872209.000000
1450.906001,-0.376811,363044.000000,864511.000000
1454.099838,-0.373707,362635.000000,857386.000000
1457.289274,-0.370055,361653.000000,847905.000000
1461.535011,-0.365591,360303.000000,836101.000000
1464.714180,-0.363262,358064.000000,826461.000000
1467.888950,-0.359714,356949.000000,817184.000000
1471.059319,-0.355345,355912.000000,806654.000000
1474.225288,-0.354016,353737.000000,799276.000000
1477.386857,-0.350827,352477.000000,790601.000000
1480.544025,-0.349691,349693.000000,782308.000000
1484.746739,-0.347564,347943.000000,774590.000000
1487.893641,-0.348159,344781.000000,768604.000000
1491.036142,-0.348538,342531.000000,764255.000000
1494.174244,-0.347996,340170.000000,758039.000000
1497.307945,-0.350088,337701.000000,756172.000000
1500.437247,-0.351693,334446.000000,751656.000000
1503.562148,-0.353487,331876.000000,748967.000000
1507.721838,-0.356105,327918.000000,744509.000000
1510.836473,-0.358610,324967.000000,742077.000000
1513.946707,-0.360671,321718.000000,738153.000000
1517.052541,-0.360914,319073.000000,732494.000000
1520.153975,-0.363455,315575.000000,728715.000000
1523.251008,-0.364800,311252.000000,720962.000000
1527.373542,-0.365676,306492.000000,711369.000000
1530.460309,-0.365959,302471.000000,702495.000000
1533.542676,-0.365598,298873.000000,693561.000000
1536.620642,-0.367447,294593.000000,686546.000000
1539.694209,-0.366875,290524.000000,676171.000000
1542.763375,-0.367919,285805.000000,666789.000000
1545.828141,-0.367777,281854.000000,657357.000000
1549.907652,-0.370567,274841.000000,645132.000000
1552.962151,-0.371119,270515.000000,635785.000000
1556.012250,-0.373430,265203.000000,626626.000000
1559.057949,-0.374904,260042.000000,616521.000000
1562.099248,-0.373619,255973.000000,605080.000000
1565.136147,-0.376455,250523.000000,596077.000000
1568.168646,-0.377777,245616.000000,586184.000000
1572.205133,-0.378176,238774.000000,570378.000000
1575.227365,-0.378539,234179.000000,559870.000000
1578.245196,-0.379399,228934.000000,548415.000000
1581.258628,-0.382055,223478.000000,538629.000000
1584.267659,-0.383467,218239.000000,527715.000000
1587.272290,-0.384512,213357.000000,517153.000000
1591.271621,-0.386739,206678.000000,503539.000000
1594.265985,-0.392389,200655.000000,495267.000000
1597.255949,-0.394331,196105.000000,486205.000000
1600.241513,-0.396970,191413.000000,477465.000000
1603.222677,-0.402197,186271.000000,470265.000000
1606.199441,-0.405539,181567.000000,461930.000000
1609.171805,-0.409484,176656.000000,453537.000000
1613.128112,-0.414018,170106.000000,441304.000000
1616.090209,-0.419739,165195.000000,434246.000000
1619.047905,-0.422055,160661.000000,424586.000000
1622.001202,-0.428068,154762.000000,414698.000000
1624.950098,-0.435600,149284.000000,407018.000000
1627.894595,-0.438872,144304.000000,396415.000000
1630.834691,-0.445976,138573.000000,386950.000000
1634.747975,-0.455000,131373.000000,374547.000000
1637.677804,-0.462392,126061.000000,365572.000000
1640.603233,-0.470690,120043.000000,354835.000000
1643.524262,-0.479797,114222.000000,344784.000000
1646.440891,-0.484721,109595.000000,334589.000000
1649.353120,-0.495178,104146.000000,325702.000000
1653.229247,-0.482310,102337.000000,310701.000000
1656.131209,-0.476487,100118.000000,299916.000000
1659.028770,-0.481700,95076.000000,288251.000000
1661.921932,-0.470507,93881.000000,277386.000000
1664.810693,-0.469412,90392.000000,266405.000000
1667.695055,-0.470169,85969.000000,253811.000000
1670.575016,-0.463995,82225.000000,239331.000000
1674.408120,-0.443780,78925.000000,219278.000000
1677.277814,-inf,0.000000,200656.000000
1680.143108,-inf,0.000000,181018.000000
1683.004002,nan,-2147483648.000000,160226.000000
1685.860496,nan,-2147483648.000000,139269.000000
1688.712590,nan,-2147483648.000000,118982.000000
1691.560283,nan,-2147483648.000000,99583.000000
1695.350364,nan,-2147483648.000000,78161.000000
1698.187790,nan,-2147483648.000000,64576.000000
1701.020817,-inf,0.000000,55449.000000
