Method:,erol,,
Host Date-Time:,7/12/23 @ 14:5:11,,
Header Version:,1,,
System Temp (C):,40.27,,
Detector Temp (C):,24.25,,
Humidity (%):,17.4,,
Lamp PD:,3464,,
Shift Vector Coefficients:,-4.80707,0.053312,-0.000138677,,
Pixel to Wavelength Coefficients:,1763.6,-0.910608,-0.000244451,,
Serial Number:,6110061,,
Scan Config Name:,erol,,
Scan Config Type:,Slew,,
Section 1,,
Start wavelength (nm):,900,,
End wavelength (nm):,1700,,
Pattern Pixel Width (nm):,  11.71,,,,
Exposure (ms):,  0.635,,,,
Digital Resolution:,228,,
Num Repeats:,1,,
PGA Gain:,64,,
Total Measurement Time in sec:,  1.591,,
Wavelength (nm),Absorbance (AU),Reference Signal (unitless),Sample Signal (unitless)
901.370984,-0.738966,22318.000000,122355.000000
905.248306,-0.728178,26694.000000,142755.000000
909.121227,-0.720151,30240.000000,158757.000000
912.989749,-0.692469,35053.000000,172661.000000
918.140932,-0.689285,39668.000000,193966.000000
921.999187,-0.681444,44171.000000,212120.000000
925.853041,-0.675229,49463.000000,234158.000000
929.702495,-0.677525,55176.000000,262588.000000
933.547549,-0.669939,62603.000000,292775.000000
937.388203,-0.664659,70557.000000,325986.000000
941.224457,-0.658322,79215.000000,360686.000000
946.332618,-0.650775,90003.000000,402747.000000
950.158605,-0.647346,97001.000000,430648.000000
953.980191,-0.641088,104340.000000,456603.000000
957.797378,-0.637364,111157.000000,482282.000000
961.610165,-0.636331,117414.000000,508219.000000
965.418551,-0.633639,124361.000000,534962.000000
969.222537,-0.629477,131496.000000,560260.000000
974.287675,-0.627327,140925.000000,597468.000000
978.081394,-0.625057,148023.000000,624290.000000
981.870713,-0.623440,155197.000000,652114.000000
985.655632,-0.622883,162010.000000,679869.000000
989.436151,-0.618692,170019.000000,706625.000000
993.212270,-0.619294,176266.000000,733605.000000
998.240251,-0.615903,184964.000000,763818.000000
1002.006103,-0.614947,190519.000000,785029.000000
1005.767554,-0.612437,196102.000000,803376.000000
1009.524606,-0.610735,200098.000000,816541.000000
1013.277258,-0.609370,204164.000000,830518.000000
1017.025509,-0.609265,206631.000000,840350.000000
1020.769360,-0.607906,209246.000000,848327.000000
1025.754318,-0.605709,211932.000000,854880.000000
1029.487902,-0.604486,213316.000000,858043.000000
1033.217086,-0.604158,213821.000000,859425.000000
1036.941870,-0.603967,213615.000000,858221.000000
1040.662255,-0.602823,213930.000000,857225.000000
1044.378238,-0.601544,213905.000000,854604.000000
1048.089822,-0.600982,213173.000000,850579.000000
1053.031756,-0.600087,211884.000000,843694.000000
1056.733073,-0.599244,211098.000000,838934.000000
1060.429990,-0.598814,209880.000000,833269.000000
1064.122506,-0.598514,209078.000000,829511.000000
1067.810623,-0.597796,208224.000000,824759.000000
1071.494339,-0.599382,206922.000000,822599.000000
1076.399116,-0.597747,206676.000000,818534.000000
1080.072566,-0.597596,206200.000000,816366.000000
1083.741615,-0.598039,205636.000000,814963.000000
1087.406264,-0.597560,205874.000000,815007.000000
1091.066513,-0.597036,205797.000000,813721.000000
1094.722362,-0.598153,205514.000000,814693.000000
1098.373811,-0.598162,205628.000000,815163.000000
1103.235565,-0.596029,206788.000000,815744.000000
1106.876747,-0.597497,206389.000000,816928.000000
1110.513529,-0.596985,206615.000000,816858.000000
1114.145910,-0.597048,206738.000000,817463.000000
1117.773892,-0.598272,206547.000000,819013.000000
1121.397473,-0.597366,207088.000000,819448.000000
1125.016654,-0.598758,206464.000000,819601.000000
1129.835385,-0.597462,207418.000000,820935.000000
1133.444299,-0.597036,207695.000000,821224.000000
1137.048813,-0.594815,208493.000000,820174.000000
1140.648927,-0.594758,208223.000000,819006.000000
1144.244641,-0.593433,208337.000000,816958.000000
1147.835955,-0.591792,208774.000000,815583.000000
1152.617529,-0.591370,208238.000000,812700.000000
1156.198576,-0.589993,208484.000000,811083.000000
1159.775223,-0.588867,208962.000000,810839.000000
1163.347470,-0.586869,209317.000000,808487.000000
1166.915316,-0.585121,209935.000000,807618.000000
1170.478763,-0.581345,211435.000000,806347.000000
1174.037809,-0.578103,213105.000000,806672.000000
1178.776359,-0.575194,214394.000000,806133.000000
1182.325139,-0.567932,217962.000000,805958.000000
1185.869518,-0.564724,220075.000000,807783.000000
1189.409497,-0.560509,222694.000000,809501.000000
1192.945076,-0.557581,224594.000000,810922.000000
1196.476255,-0.555302,226828.000000,814701.000000
1200.003034,-0.552753,229675.000000,820100.000000
1204.698561,-0.551472,232729.000000,828558.000000
1208.215073,-0.549359,235830.000000,835522.000000
1211.727185,-0.548459,238631.000000,843696.000000
1215.234896,-0.547003,241974.000000,852652.000000
1218.738208,-0.545092,245450.000000,861102.000000
1222.237119,-0.545314,248996.000000,873990.000000
1226.895489,-0.544437,254001.000000,889760.000000
1230.384134,-0.545119,257796.000000,904473.000000
1233.868378,-0.546903,261030.000000,919589.000000
1237.348222,-0.547593,264910.000000,934742.000000
1240.823666,-0.547764,269187.000000,950206.000000
1244.294710,-0.547533,274535.000000,968569.000000
1247.761354,-0.548869,278817.000000,986708.000000
1252.376701,-0.550028,285943.000000,1014629.000000
1255.833078,-0.549601,292339.000000,1036305.000000
1259.285055,-0.549719,298387.000000,1058033.000000
1262.732632,-0.550569,303484.000000,1078213.000000
1266.175808,-0.550627,308643.000000,1096690.000000
1269.614584,-0.550845,313923.000000,1116009.000000
1273.048961,-0.550721,319097.000000,1134080.000000
1277.621284,-0.552132,324380.000000,1156608.000000
1281.045394,-0.552115,329793.000000,1175862.000000
1284.465103,-0.553813,333450.000000,1193559.000000
1287.880412,-0.554692,337104.000000,1209082.000000
1291.291321,-0.555696,340768.000000,1225052.000000
1294.697830,-0.556078,344605.000000,1239936.000000
1299.232997,-0.556345,349244.000000,1257400.000000
1302.629239,-0.556449,352441.000000,1269217.000000
1306.021081,-0.556223,355144.000000,1278283.000000
1309.408522,-0.556272,357732.000000,1287746.000000
1312.791564,-0.555790,360160.000000,1295048.000000
1316.170205,-0.556051,362173.000000,1303069.000000
1319.544447,-0.555026,364403.000000,1308000.000000
1324.036591,-0.554932,366317.000000,1314586.000000
1327.400565,-0.555004,366589.000000,1315780.000000
1330.760139,-0.552863,368623.000000,1316575.000000
1334.115313,-0.552783,368498.000000,1315887.000000
1337.466087,-0.550268,370046.000000,1313782.000000
1340.812461,-0.548756,370709.000000,1311564.000000
1344.154435,-0.545542,371502.000000,1304676.000000
1348.603555,-0.542376,371615.000000,1295595.000000
1351.935262,-0.539780,370997.000000,1285732.000000
1355.262569,-0.534738,371791.000000,1273611.000000
1358.585475,-0.531622,370879.000000,1261403.000000
1361.903982,-0.527575,370539.000000,1248559.000000
1365.218088,-0.522263,371657.000000,1237101.000000
1369.630052,-0.517688,372397.000000,1226575.000000
1372.933891,-0.515066,372524.000000,1219609.000000
1376.233331,-0.512603,372314.000000,1212027.000000
1379.528370,-0.510838,371243.000000,1203640.000000
1382.819009,-0.510284,369231.000000,1195590.000000
1386.105248,-0.508801,367705.000000,1186590.000000
1389.387087,-0.505937,367073.000000,1176763.000000
1393.756027,-0.501275,365715.000000,1159892.000000
1397.027599,-0.496797,365152.000000,1146226.000000
1400.294771,-0.490951,365097.000000,1130731.000000
1403.557542,-0.485808,364333.000000,1115080.000000
1406.815914,-0.476194,365413.000000,1093902.000000
1410.069885,-0.466706,365734.000000,1071202.000000
1413.319456,-0.458575,364947.000000,1049072.000000
1417.645373,-0.444086,365539.000000,1016294.000000
1420.884678,-0.434302,365230.000000,992816.000000
1424.119582,-0.424101,365533.000000,970572.000000
1427.350086,-0.416710,364906.000000,952556.000000
1430.576190,-0.408105,365583.000000,935601.000000
1433.797894,-0.401883,365648.000000,922457.000000
1437.015198,-0.395966,365698.000000,910098.000000
1441.298091,-0.390597,364890.000000,896931.000000
1444.505128,-0.386489,364741.000000,888124.000000
1447.707765,-0.383283,364393.000000,880750.000000
1450.906001,-0.380952,363044.000000,872794.000000
1454.099838,-0.377473,362635.000000,864853.000000
1457.289274,-0.374490,361653.000000,856608.000000
1461.535011,-0.370206,360303.000000,845034.000000
1464.714180,-0.367899,358064.000000,835334.000000
1467.888950,-0.364232,356949.000000,825730.000000
1471.059319,-0.360162,355912.000000,815652.000000
1474.225288,-0.357883,353737.000000,806424.000000
1477.386857,-0.354736,352477.000000,797750.000000
1480.544025,-0.353516,349693.000000,789228.000000
1484.746739,-0.351853,347943.000000,782278.000000
1487.893641,-0.352083,344781.000000,775580.000000
1491.036142,-0.352311,342531.000000,770922.000000
1494.174244,-0.352622,340170.000000,766157.000000
1497.307945,-0.353294,337701.000000,761775.000000
1500.437247,-0.355418,334446.000000,758131.000000
1503.562148,-0.356251,331876.000000,753750.000000
1507.721838,-0.359878,327918.000000,751006.000000
1510.836473,-0.361348,324967.000000,746771.000000
1513.946707,-0.363719,321718.000000,743352.000000
1517.052541,-0.363726,319073.000000,737252.000000
1520.153975,-0.366134,315575.000000,733224.000000
1523.251008,-0.367924,311252.000000,726167.000000
1527.373542,-0.369464,306492.000000,717601.000000
1530.460309,-0.369147,302471.000000,707670.000000
1533.542676,-0.369729,298873.000000,700189.000000
1536.620642,-0.370252,294593.000000,690995.000000
1539.694209,-0.370994,290524.000000,682615.000000
1542.763375,-0.371765,285805.000000,672720.000000
1545.828141,-0.371893,281854.000000,663616.000000
1549.907652,-0.375298,274841.000000,652198.000000
1552.962151,-0.374789,270515.000000,641180.000000
1556.012250,-0.377066,265203.000000,631894.000000
1559.057949,-0.378989,260042.000000,622347.000000
1562.099248,-0.379319,255973.000000,613074.000000
1565.136147,-0.381367,250523.000000,602857.000000
1568.168646,-0.381430,245616.000000,591135.000000
1572.205133,-0.383760,238774.000000,577759.000000
1575.227365,-0.383581,234179.000000,566408.000000
1578.245196,-0.384396,228934.000000,554761.000000
1581.258628,-0.386920,223478.000000,544697.000000
1584.267659,-0.389371,218239.000000,534938.000000
1587.272290,-0.389699,213357.000000,523367.000000
1591.271621,-0.392766,206678.000000,510576.000000
1594.265985,-0.397109,200655.000000,500679.000000
1597.255949,-0.399725,196105.000000,492282.000000
1600.241513,-0.402963,191413.000000,484099.000000
1603.222677,-0.406861,186271.000000,475342.000000
1606.199441,-0.410974,181567.000000,467747.000000
1609.171805,-0.414524,176656.000000,458831.000000
1613.128112,-0.419200,170106.000000,446601.000000
1616.090209,-0.424374,165195.000000,438905.000000
1619.047905,-0.427193,160661.000000,429639.000000
1622.001202,-0.433777,154762.000000,420186.000000
1624.950098,-0.441045,149284.000000,412153.000000
1627.894595,-0.444843,144304.000000,401903.000000
1630.834691,-0.452856,138573.000000,393129.000000
1634.747975,-0.460263,131373.000000,379113.000000
1637.677804,-0.467239,126061.000000,369675.000000
1640.603233,-0.477407,120043.000000,360366.000000
1643.524262,-0.485155,114222.000000,349064.000000
1646.440891,-0.490208,109595.000000,338843.000000
1649.353120,-0.500422,104146.000000,329659.000000
1653.229247,-0.489866,102337.000000,316154.000000
1656.131209,-0.482060,100118.000000,303789.000000
1659.028770,-0.489133,95076.000000,293227.000000
1661.921932,-0.477755,93881.000000,282054.000000
1664.810693,-0.477693,90392.000000,271533.000000
1667.695055,-0.475644,85969.000000,257031.000000
1670.575016,-0.470340,82225.000000,242853.000000
1674.408120,-0.449234,78925.000000,222049.000000
1677.277814,-inf,0.000000,204159.000000
1680.143108,-inf,0.000000,185060.000000
1683.004002,nan,-2147483648.000000,163847.000000
1685.860496,nan,-2147483648.000000,141800.000000
1688.712590,nan,-2147483648.000000,121037.000000
1691.560283,nan,-2147483648.000000,102210.000000
1695.350364,nan,-2147483648.000000,80700.000000
1698.187790,nan,-2147483648.000000,67264.000000
1701.020817,-inf,0.000000,56450.000000
