Method:,erol,,
Host Date-Time:,7/12/23 @ 14:5:58,,
Header Version:,1,,
System Temp (C):,40.4,,
Detector Temp (C):,26.92,,
Humidity (%):,17.35,,
Lamp PD:,3501,,
Shift Vector Coefficients:,-4.80707,0.053312,-0.000138677,,
Pixel to Wavelength Coefficients:,1763.6,-0.910608,-0.000244451,,
Serial Number:,6110061,,
Scan Config Name:,erol,,
Scan Config Type:,Slew,,
Section 1,,
Start wavelength (nm):,900,,
End wavelength (nm):,1700,,
Pattern Pixel Width (nm):,  11.71,,,,
Exposure (ms):,  0.635,,,,
Digital Resolution:,228,,
Num Repeats:,1,,
PGA Gain:,64,,
Total Measurement Time in sec:,  1.593,,
Wavelength (nm),Absorbance (AU),Reference Signal (unitless),Sample Signal (unitless)
901.370984,-0.737630,22318.000000,121979.000000
905.248306,-0.723363,26694.000000,141181.000000
909.121227,-0.715655,30240.000000,157122.000000
912.989749,-0.687964,35053.000000,170879.000000
918.140932,-0.683533,39668.000000,191414.000000
921.999187,-0.674911,44171.000000,208953.000000
925.853041,-0.671696,49463.000000,232261.000000
929.702495,-0.669216,55176.000000,257612.000000
933.547549,-0.662962,62603.000000,288109.000000
937.388203,-0.657067,70557.000000,320337.000000
941.224457,-0.651500,79215.000000,355065.000000
946.332618,-0.644543,90003.000000,397009.000000
950.158605,-0.641790,97001.000000,425174.000000
953.980191,-0.636633,104340.000000,451943.000000
957.797378,-0.633254,111157.000000,477739.000000
961.610165,-0.631475,117414.000000,502568.000000
965.418551,-0.629816,124361.000000,530274.000000
969.222537,-0.626587,131496.000000,556544.000000
974.287675,-0.622459,140925.000000,590809.000000
978.081394,-0.622051,148023.000000,619983.000000
981.870713,-0.621049,155197.000000,648534.000000
985.655632,-0.620292,162010.000000,675825.000000
989.436151,-0.616151,170019.000000,702504.000000
993.212270,-0.616423,176266.000000,728771.000000
998.240251,-0.613727,184964.000000,760001.000000
1002.006103,-0.612835,190519.000000,781219.000000
1005.767554,-0.610456,196102.000000,799720.000000
1009.524606,-0.610197,200098.000000,815530.000000
1013.277258,-0.607935,204164.000000,827778.000000
1017.025509,-0.607491,206631.000000,836924.000000
1020.769360,-0.606554,209246.000000,845690.000000
1025.754318,-0.604803,211932.000000,853100.000000
1029.487902,-0.602308,213316.000000,853752.000000
1033.217086,-0.601874,213821.000000,854918.000000
1036.941870,-0.602070,213615.000000,854480.000000
1040.662255,-0.601120,213930.000000,853870.000000
1044.378238,-0.599961,213905.000000,851494.000000
1048.089822,-0.599914,213173.000000,848489.000000
1053.031756,-0.599550,211884.000000,842651.000000
1056.733073,-0.598514,211098.000000,837526.000000
1060.429990,-0.598766,209880.000000,833176.000000
1064.122506,-0.597455,209078.000000,827492.000000
1067.810623,-0.597457,208224.000000,824114.000000
1071.494339,-0.597379,206922.000000,818815.000000
1076.399116,-0.596791,206676.000000,816734.000000
1080.072566,-0.596682,206200.000000,814650.000000
1083.741615,-0.597097,205636.000000,813197.000000
1087.406264,-0.596511,205874.000000,813041.000000
1091.066513,-0.595610,205797.000000,811052.000000
1094.722362,-0.596970,205514.000000,812477.000000
1098.373811,-0.597000,205628.000000,812985.000000
1103.235565,-0.594979,206788.000000,813775.000000
1106.876747,-0.595613,206389.000000,813391.000000
1110.513529,-0.595546,206615.000000,814156.000000
1114.145910,-0.595767,206738.000000,815056.000000
1117.773892,-0.596154,206547.000000,815028.000000
1121.397473,-0.595186,207088.000000,815344.000000
1125.016654,-0.596877,206464.000000,816059.000000
1129.835385,-0.594764,207418.000000,815850.000000
1133.444299,-0.594131,207695.000000,815749.000000
1137.048813,-0.591866,208493.000000,814624.000000
1140.648927,-0.591895,208223.000000,813624.000000
1144.244641,-0.590476,208337.000000,811413.000000
1147.835955,-0.588713,208774.000000,809821.000000
1152.617529,-0.589106,208238.000000,808474.000000
1156.198576,-0.587590,208484.000000,806609.000000
1159.775223,-0.585432,208962.000000,804451.000000
1163.347470,-0.584052,209317.000000,803260.000000
1166.915316,-0.581408,209935.000000,800743.000000
1170.478763,-0.578179,211435.000000,800490.000000
1174.037809,-0.575091,213105.000000,801096.000000
1178.776359,-0.571907,214394.000000,800055.000000
1182.325139,-0.565579,217962.000000,801603.000000
1185.869518,-0.562073,220075.000000,802868.000000
1189.409497,-0.557369,222694.000000,803669.000000
1192.945076,-0.554963,224594.000000,806048.000000
1196.476255,-0.552616,226828.000000,809679.000000
1200.003034,-0.550245,229675.000000,815377.000000
1204.698561,-0.548930,232729.000000,823722.000000
1208.215073,-0.547693,235830.000000,832324.000000
1211.727185,-0.546630,238631.000000,840151.000000
1215.234896,-0.545725,241974.000000,850147.000000
1218.738208,-0.544235,245450.000000,859405.000000
1222.237119,-0.543587,248996.000000,870521.000000
1226.895489,-0.544685,254001.000000,890268.000000
1230.384134,-0.544456,257796.000000,903092.000000
1233.868378,-0.546092,261030.000000,917873.000000
1237.348222,-0.547448,264910.000000,934430.000000
1240.823666,-0.547959,269187.000000,950634.000000
1244.294710,-0.547830,274535.000000,969233.000000
1247.761354,-0.549498,278817.000000,988137.000000
1252.376701,-0.550239,285943.000000,1015123.000000
1255.833078,-0.549835,292339.000000,1036863.000000
1259.285055,-0.549568,298387.000000,1057664.000000
1262.732632,-0.550665,303484.000000,1078452.000000
1266.175808,-0.550923,308643.000000,1097436.000000
1269.614584,-0.550818,313923.000000,1115940.000000
1273.048961,-0.550853,319097.000000,1134425.000000
1277.621284,-0.553050,324380.000000,1159055.000000
1281.045394,-0.552058,329793.000000,1175709.000000
1284.465103,-0.553712,333450.000000,1193281.000000
1287.880412,-0.554335,337104.000000,1208090.000000
1291.291321,-0.555291,340768.000000,1223912.000000
1294.697830,-0.555767,344605.000000,1239049.000000
1299.232997,-0.556078,349244.000000,1256628.000000
1302.629239,-0.555990,352441.000000,1267875.000000
1306.021081,-0.556139,355144.000000,1278036.000000
1309.408522,-0.555781,357732.000000,1286290.000000
1312.791564,-0.555242,360160.000000,1293415.000000
1316.170205,-0.555605,362173.000000,1301730.000000
1319.544447,-0.555309,364403.000000,1308854.000000
1324.036591,-0.554796,366317.000000,1314176.000000
1327.400565,-0.555597,366589.000000,1317577.000000
1330.760139,-0.552888,368623.000000,1316651.000000
1334.115313,-0.552804,368498.000000,1315948.000000
1337.466087,-0.550471,370046.000000,1314397.000000
1340.812461,-0.549100,370709.000000,1312603.000000
1344.154435,-0.546334,371502.000000,1307058.000000
1348.603555,-0.543118,371615.000000,1297810.000000
1351.935262,-0.540343,370997.000000,1287400.000000
1355.262569,-0.535866,371791.000000,1276923.000000
1358.585475,-0.532485,370879.000000,1263914.000000
1361.903982,-0.528722,370539.000000,1251861.000000
1365.218088,-0.523919,371657.000000,1241829.000000
1369.630052,-0.519424,372397.000000,1231488.000000
1372.933891,-0.516203,372524.000000,1222804.000000
1376.233331,-0.514085,372314.000000,1216171.000000
1379.528370,-0.512497,371243.000000,1208246.000000
1382.819009,-0.511635,369231.000000,1199314.000000
1386.105248,-0.510140,367705.000000,1190254.000000
1389.387087,-0.506899,367073.000000,1179375.000000
1393.756027,-0.503285,365715.000000,1165273.000000
1397.027599,-0.498704,365152.000000,1151272.000000
1400.294771,-0.492353,365097.000000,1134388.000000
1403.557542,-0.486958,364333.000000,1118037.000000
1406.815914,-0.477695,365413.000000,1097687.000000
1410.069885,-0.468239,365734.000000,1074989.000000
1413.319456,-0.460006,364947.000000,1052534.000000
1417.645373,-0.446164,365539.000000,1021169.000000
1420.884678,-0.436258,365230.000000,997297.000000
1424.119582,-0.426781,365533.000000,976579.000000
1427.350086,-0.418876,364906.000000,957320.000000
1430.576190,-0.411279,365583.000000,942465.000000
1433.797894,-0.405280,365648.000000,929701.000000
1437.015198,-0.399791,365698.000000,918150.000000
1441.298091,-0.393845,364890.000000,903664.000000
1444.505128,-0.391228,364741.000000,897869.000000
1447.707765,-0.386611,364393.000000,887525.000000
1450.906001,-0.384485,363044.000000,879923.000000
1454.099838,-0.382433,362635.000000,874788.000000
1457.289274,-0.379302,361653.000000,866151.000000
1461.535011,-0.374317,360303.000000,853071.000000
1464.714180,-0.372624,358064.000000,844470.000000
1467.888950,-0.368520,356949.000000,833924.000000
1471.059319,-0.364886,355912.000000,824572.000000
1474.225288,-0.362515,353737.000000,815071.000000
1477.386857,-0.359355,352477.000000,806279.000000
1480.544025,-0.358828,349693.000000,798941.000000
1484.746739,-0.356283,347943.000000,790298.000000
1487.893641,-0.357738,344781.000000,785745.000000
1491.036142,-0.357441,342531.000000,780084.000000
1494.174244,-0.357917,340170.000000,775555.000000
1497.307945,-0.358692,337701.000000,771302.000000
1500.437247,-0.360770,334446.000000,767532.000000
1503.562148,-0.362463,331876.000000,764608.000000
1507.721838,-0.365123,327918.000000,760131.000000
1510.836473,-0.367199,324967.000000,756899.000000
1513.946707,-0.368640,321718.000000,751822.000000
1517.052541,-0.369450,319073.000000,747033.000000
1520.153975,-0.371702,315575.000000,742685.000000
1523.251008,-0.373905,311252.000000,736237.000000
1527.373542,-0.374397,306492.000000,725798.000000
1530.460309,-0.375883,302471.000000,718731.000000
1533.542676,-0.375060,298873.000000,708838.000000
1536.620642,-0.375597,294593.000000,699551.000000
1539.694209,-0.375284,290524.000000,689392.000000
1542.763375,-0.375858,285805.000000,679091.000000
1545.828141,-0.377175,281854.000000,671737.000000
1549.907652,-0.379524,274841.000000,658576.000000
1552.962151,-0.379717,270515.000000,648497.000000
1556.012250,-0.381848,265203.000000,638891.000000
1559.057949,-0.383443,260042.000000,628762.000000
1562.099248,-0.382885,255973.000000,618129.000000
1565.136147,-0.385077,250523.000000,608029.000000
1568.168646,-0.386086,245616.000000,597507.000000
1572.205133,-0.386920,238774.000000,581979.000000
1575.227365,-0.387329,234179.000000,571317.000000
1578.245196,-0.388513,228934.000000,560045.000000
1581.258628,-0.389627,223478.000000,548103.000000
1584.267659,-0.391701,218239.000000,537816.000000
1587.272290,-0.392448,213357.000000,526690.000000
1591.271621,-0.395752,206678.000000,514098.000000
1594.265985,-0.399982,200655.000000,504002.000000
1597.255949,-0.402437,196105.000000,495365.000000
1600.241513,-0.404652,191413.000000,485986.000000
1603.222677,-0.409932,186271.000000,478715.000000
1606.199441,-0.412427,181567.000000,469314.000000
1609.171805,-0.416483,176656.000000,460905.000000
1613.128112,-0.421503,170106.000000,448976.000000
1616.090209,-0.425944,165195.000000,440495.000000
1619.047905,-0.427959,160661.000000,430397.000000
1622.001202,-0.435200,154762.000000,421565.000000
1624.950098,-0.441313,149284.000000,412407.000000
1627.894595,-0.446091,144304.000000,403060.000000
1630.834691,-0.453581,138573.000000,393785.000000
1634.747975,-0.461376,131373.000000,380086.000000
1637.677804,-0.467540,126061.000000,369931.000000
1640.603233,-0.476677,120043.000000,359761.000000
1643.524262,-0.485871,114222.000000,349640.000000
1646.440891,-0.491683,109595.000000,339996.000000
1649.353120,-0.500795,104146.000000,329942.000000
1653.229247,-0.489283,102337.000000,315730.000000
1656.131209,-0.482706,100118.000000,304241.000000
1659.028770,-0.490386,95076.000000,294074.000000
1661.921932,-0.479226,93881.000000,283011.000000
1664.810693,-0.476369,90392.000000,270707.000000
1667.695055,-0.478325,85969.000000,258623.000000
1670.575016,-0.472021,82225.000000,243795.000000
1674.408120,-0.453659,78925.000000,224323.000000
1677.277814,-inf,0.000000,205822.000000
1680.143108,-inf,0.000000,186718.000000
1683.004002,nan,-2147483648.000000,164659.000000
1685.860496,nan,-2147483648.000000,142561.000000
1688.712590,nan,-2147483648.000000,122198.000000
1691.560283,nan,-2147483648.000000,102879.000000
1695.350364,nan,-2147483648.000000,81825.000000
1698.187790,nan,-2147483648.000000,68186.000000
1701.020817,-inf,0.000000,57289.000000
