Method:,erol,,
Host Date-Time:,7/12/23 @ 14:6:31,,
Header Version:,1,,
System Temp (C):,40.54,,
Detector Temp (C):,26.69,,
Humidity (%):,17.26,,
Lamp PD:,3418,,
Shift Vector Coefficients:,-4.80707,0.053312,-0.000138677,,
Pixel to Wavelength Coefficients:,1763.6,-0.910608,-0.000244451,,
Serial Number:,6110061,,
Scan Config Name:,erol,,
Scan Config Type:,Slew,,
Section 1,,
Start wavelength (nm):,900,,
End wavelength (nm):,1700,,
Pattern Pixel Width (nm):,  11.71,,,,
Exposure (ms):,  0.635,,,,
Digital Resolution:,228,,
Num Repeats:,1,,
PGA Gain:,64,,
Total Measurement Time in sec:,  1.591,,
Wavelength (nm),Absorbance (AU),Reference Signal (unitless),Sample Signal (unitless)
901.370984,-0.693574,22318.000000,110212.000000
905.248306,-0.678319,26694.000000,127272.000000
909.121227,-0.670917,30240.000000,141742.000000
912.989749,-0.644004,35053.000000,154429.000000
918.140932,-0.638047,39668.000000,172380.000000
921.999187,-0.630050,44171.000000,188446.000000
925.853041,-0.625905,49463.000000,209019.000000
929.702495,-0.626542,55176.000000,233503.000000
933.547549,-0.623476,62603.000000,263070.000000
937.388203,-0.615724,70557.000000,291249.000000
941.224457,-0.609489,79215.000000,322327.000000
946.332618,-0.601811,90003.000000,359806.000000
950.158605,-0.600117,97001.000000,386272.000000
953.980191,-0.594864,104340.000000,410502.000000
957.797378,-0.589941,111157.000000,432392.000000
961.610165,-0.589311,117414.000000,456069.000000
965.418551,-0.585070,124361.000000,478359.000000
969.222537,-0.583115,131496.000000,503532.000000
974.287675,-0.580521,140925.000000,536425.000000
978.081394,-0.578296,148023.000000,560564.000000
981.870713,-0.576968,155197.000000,585937.000000
985.655632,-0.576887,162010.000000,611546.000000
989.436151,-0.573186,170019.000000,636332.000000
993.212270,-0.572988,176266.000000,659412.000000
998.240251,-0.569565,184964.000000,686518.000000
1002.006103,-0.568659,190519.000000,705663.000000
1005.767554,-0.565869,196102.000000,721691.000000
1009.524606,-0.565456,200098.000000,735696.000000
1013.277258,-0.563559,204164.000000,747375.000000
1017.025509,-0.563004,206631.000000,755440.000000
1020.769360,-0.560712,209246.000000,760973.000000
1025.754318,-0.558798,211932.000000,767351.000000
1029.487902,-0.557602,213316.000000,770239.000000
1033.217086,-0.556599,213821.000000,770282.000000
1036.941870,-0.556542,213615.000000,769438.000000
1040.662255,-0.555160,213930.000000,768124.000000
1044.378238,-0.553307,213905.000000,764765.000000
1048.089822,-0.553410,213173.000000,762328.000000
1053.031756,-0.552064,211884.000000,755375.000000
1056.733073,-0.550854,211098.000000,750478.000000
1060.429990,-0.550942,209880.000000,746300.000000
1064.122506,-0.550678,209078.000000,742996.000000
1067.810623,-0.548596,208224.000000,736422.000000
1071.494339,-0.549963,206922.000000,734124.000000
1076.399116,-0.548823,206676.000000,731330.000000
1080.072566,-0.548990,206200.000000,729926.000000
1083.741615,-0.548632,205636.000000,727330.000000
1087.406264,-0.547766,205874.000000,726721.000000
1091.066513,-0.547508,205797.000000,726018.000000
1094.722362,-0.547905,205514.000000,725682.000000
1098.373811,-0.548092,205628.000000,726398.000000
1103.235565,-0.546412,206788.000000,727674.000000
1106.876747,-0.546589,206389.000000,726566.000000
1110.513529,-0.545920,206615.000000,726242.000000
1114.145910,-0.546174,206738.000000,727101.000000
1117.773892,-0.547000,206547.000000,727811.000000
1121.397473,-0.545479,207088.000000,727166.000000
1125.016654,-0.547179,206464.000000,727819.000000
1129.835385,-0.545543,207418.000000,728433.000000
1133.444299,-0.545079,207695.000000,728627.000000
1137.048813,-0.543585,208493.000000,728914.000000
1140.648927,-0.544294,208223.000000,729160.000000
1144.244641,-0.544258,208337.000000,729499.000000
1147.835955,-0.542463,208774.000000,728014.000000
1152.617529,-0.543340,208238.000000,727613.000000
1156.198576,-0.541991,208484.000000,726212.000000
1159.775223,-0.541356,208962.000000,726814.000000
1163.347470,-0.540221,209317.000000,726148.000000
1166.915316,-0.539313,209935.000000,726771.000000
1170.478763,-0.536356,211435.000000,726997.000000
1174.037809,-0.533918,213105.000000,728637.000000
1178.776359,-0.531123,214394.000000,728343.000000
1182.325139,-0.525242,217962.000000,730505.000000
1185.869518,-0.522110,220075.000000,732286.000000
1189.409497,-0.518969,222694.000000,735660.000000
1192.945076,-0.516335,224594.000000,737451.000000
1196.476255,-0.515960,226828.000000,744144.000000
1200.003034,-0.513459,229675.000000,749156.000000
1204.698561,-0.512168,232729.000000,756865.000000
1208.215073,-0.511021,235830.000000,764927.000000
1211.727185,-0.510181,238631.000000,772517.000000
1215.234896,-0.508665,241974.000000,780609.000000
1218.738208,-0.508494,245450.000000,791511.000000
1222.237119,-0.507392,248996.000000,800911.000000
1226.895489,-0.506534,254001.000000,815398.000000
1230.384134,-0.507448,257796.000000,829324.000000
1233.868378,-0.508075,261030.000000,840941.000000
1237.348222,-0.509104,264910.000000,855465.000000
1240.823666,-0.509267,269187.000000,869603.000000
1244.294710,-0.507917,274535.000000,884128.000000
1247.761354,-0.509230,278817.000000,900635.000000
1252.376701,-0.509554,285943.000000,924344.000000
1255.833078,-0.509223,292339.000000,944299.000000
1259.285055,-0.508254,298387.000000,961688.000000
1262.732632,-0.509269,303484.000000,980404.000000
1266.175808,-0.509510,308643.000000,997623.000000
1269.614584,-0.509202,313923.000000,1013969.000000
1273.048961,-0.508192,319097.000000,1028288.000000
1277.621284,-0.509671,324380.000000,1048879.000000
1281.045394,-0.508778,329793.000000,1064191.000000
1284.465103,-0.510437,333450.000000,1080110.000000
1287.880412,-0.510687,337104.000000,1092575.000000
1291.291321,-0.511299,340768.000000,1106006.000000
1294.697830,-0.511192,344605.000000,1118186.000000
1299.232997,-0.511537,349244.000000,1134137.000000
1302.629239,-0.511022,352441.000000,1143165.000000
1306.021081,-0.510892,355144.000000,1151585.000000
1309.408522,-0.510622,357732.000000,1159257.000000
1312.791564,-0.509963,360160.000000,1165355.000000
1316.170205,-0.510069,362173.000000,1172155.000000
1319.544447,-0.509906,364403.000000,1178931.000000
1324.036591,-0.510001,366317.000000,1185380.000000
1327.400565,-0.510547,366589.000000,1187754.000000
1330.760139,-0.508641,368623.000000,1189114.000000
1334.115313,-0.509116,368498.000000,1190012.000000
1337.466087,-0.507058,370046.000000,1189360.000000
1340.812461,-0.506488,370709.000000,1189928.000000
1344.154435,-0.504024,371502.000000,1185729.000000
1348.603555,-0.502238,371615.000000,1181222.000000
1351.935262,-0.500214,370997.000000,1173775.000000
1355.262569,-0.496270,371791.000000,1165651.000000
1358.585475,-0.493690,370879.000000,1155904.000000
1361.903982,-0.491156,370539.000000,1148128.000000
1365.218088,-0.486526,371657.000000,1139380.000000
1369.630052,-0.482540,372397.000000,1131217.000000
1372.933891,-0.480621,372524.000000,1126614.000000
1376.233331,-0.478707,372314.000000,1121028.000000
1379.528370,-0.477473,371243.000000,1114631.000000
1382.819009,-0.476935,369231.000000,1107218.000000
1386.105248,-0.475580,367705.000000,1099206.000000
1389.387087,-0.472770,367073.000000,1090242.000000
1393.756027,-0.469804,365715.000000,1078815.000000
1397.027599,-0.466258,365152.000000,1068394.000000
1400.294771,-0.461459,365097.000000,1056495.000000
1403.557542,-0.456801,364333.000000,1043037.000000
1406.815914,-0.449207,365413.000000,1027994.000000
1410.069885,-0.441543,365734.000000,1010900.000000
1413.319456,-0.433661,364947.000000,990582.000000
1417.645373,-0.421841,365539.000000,965549.000000
1420.884678,-0.413109,365230.000000,945530.000000
1424.119582,-0.404626,365533.000000,928009.000000
1427.350086,-0.396648,364906.000000,909555.000000
1430.576190,-0.389804,365583.000000,896995.000000
1433.797894,-0.383520,365648.000000,884266.000000
1437.015198,-0.378535,365698.000000,874294.000000
1441.298091,-0.373959,364890.000000,863219.000000
1444.505128,-0.369639,364741.000000,854325.000000
1447.707765,-0.366910,364393.000000,848165.000000
1450.906001,-0.365206,363044.000000,841716.000000
1454.099838,-0.361570,362635.000000,833758.000000
1457.289274,-0.358905,361653.000000,826413.000000
1461.535011,-0.354429,360303.000000,814886.000000
1464.714180,-0.352306,358064.000000,805873.000000
1467.888950,-0.348673,356949.000000,796672.000000
1471.059319,-0.344719,355912.000000,787157.000000
1474.225288,-0.342831,353737.000000,778954.000000
1477.386857,-0.339006,352477.000000,769373.000000
1480.544025,-0.338823,349693.000000,762975.000000
1484.746739,-0.335566,347943.000000,753484.000000
1487.893641,-0.337140,344781.000000,749348.000000
1491.036142,-0.336939,342531.000000,744113.000000
1494.174244,-0.337091,340170.000000,739242.000000
1497.307945,-0.338133,337701.000000,735640.000000
1500.437247,-0.340155,334446.000000,731949.000000
1503.562148,-0.341455,331876.000000,728502.000000
1507.721838,-0.344770,327918.000000,725329.000000
1510.836473,-0.345852,324967.000000,720595.000000
1513.946707,-0.347844,321718.000000,716671.000000
1517.052541,-0.348632,319073.000000,712069.000000
1520.153975,-0.350035,315575.000000,706542.000000
1523.251008,-0.351946,311252.000000,699936.000000
1527.373542,-0.353418,306492.000000,691571.000000
1530.460309,-0.353698,302471.000000,682939.000000
1533.542676,-0.354013,298873.000000,675305.000000
1536.620642,-0.354104,294593.000000,665774.000000
1539.694209,-0.354605,290524.000000,657336.000000
1542.763375,-0.354847,285805.000000,647019.000000
1545.828141,-0.355505,281854.000000,639042.000000
1549.907652,-0.359145,274841.000000,628386.000000
1552.962151,-0.360163,270515.000000,619947.000000
1556.012250,-0.361524,265203.000000,609681.000000
1559.057949,-0.363474,260042.000000,600506.000000
1562.099248,-0.363307,255973.000000,590882.000000
1565.136147,-0.364964,250523.000000,580512.000000
1568.168646,-0.365758,245616.000000,570183.000000
1572.205133,-0.367739,238774.000000,556835.000000
1575.227365,-0.367586,234179.000000,545926.000000
1578.245196,-0.369673,228934.000000,536270.000000
1581.258628,-0.371241,223478.000000,525383.000000
1584.267659,-0.373445,218239.000000,515676.000000
1587.272290,-0.374431,213357.000000,505287.000000
1591.271621,-0.376981,206678.000000,492351.000000
1594.265985,-0.381656,200655.000000,483177.000000
1597.255949,-0.384362,196105.000000,475172.000000
1600.241513,-0.386118,191413.000000,465682.000000
1603.222677,-0.392001,186271.000000,459353.000000
1606.199441,-0.394975,181567.000000,450829.000000
1609.171805,-0.397831,176656.000000,441529.000000
1613.128112,-0.403254,170106.000000,430500.000000
1616.090209,-0.408045,165195.000000,422709.000000
1619.047905,-0.410084,160661.000000,413042.000000
1622.001202,-0.415406,154762.000000,402782.000000
1624.950098,-0.423424,149284.000000,395765.000000
1627.894595,-0.426552,144304.000000,385328.000000
1630.834691,-0.433187,138573.000000,375721.000000
1634.747975,-0.441911,131373.000000,363427.000000
1637.677804,-0.449174,126061.000000,354613.000000
1640.603233,-0.457696,120043.000000,344376.000000
1643.524262,-0.465397,114222.000000,333539.000000
1646.440891,-0.470591,109595.000000,323878.000000
1649.353120,-0.480667,104146.000000,314999.000000
1653.229247,-0.467246,102337.000000,300109.000000
1656.131209,-0.460023,100118.000000,288759.000000
1659.028770,-0.468330,95076.000000,279512.000000
1661.921932,-0.458574,93881.000000,269868.000000
1664.810693,-0.453928,90392.000000,257074.000000
1667.695055,-0.454452,85969.000000,244790.000000
1670.575016,-0.450808,82225.000000,232173.000000
1674.408120,-0.428695,78925.000000,211792.000000
1677.277814,-inf,0.000000,195348.000000
1680.143108,-inf,0.000000,175834.000000
1683.004002,nan,-2147483648.000000,155946.000000
1685.860496,nan,-2147483648.000000,134525.000000
1688.712590,nan,-2147483648.000000,114965.000000
1691.560283,nan,-2147483648.000000,97167.000000
1695.350364,nan,-2147483648.000000,76441.000000
1698.187790,nan,-2147483648.000000,62683.000000
1701.020817,-inf,0.000000,54254.000000
