Method:,erol,,
Host Date-Time:,7/12/23 @ 14:5:50,,
Header Version:,1,,
System Temp (C):,40.43,,
Detector Temp (C):,27.15,,
Humidity (%):,17.35,,
Lamp PD:,3545,,
Shift Vector Coefficients:,-4.80707,0.053312,-0.000138677,,
Pixel to Wavelength Coefficients:,1763.6,-0.910608,-0.000244451,,
Serial Number:,6110061,,
Scan Config Name:,erol,,
Scan Config Type:,Slew,,
Section 1,,
Start wavelength (nm):,900,,
End wavelength (nm):,1700,,
Pattern Pixel Width (nm):,  11.71,,,,
Exposure (ms):,  0.635,,,,
Digital Resolution:,228,,
Num Repeats:,1,,
PGA Gain:,64,,
Total Measurement Time in sec:,  1.593,,
Wavelength (nm),Absorbance (AU),Reference Signal (unitless),Sample Signal (unitless)
901.370984,-0.742780,22318.000000,123434.000000
905.248306,-0.733800,26694.000000,144615.000000
909.121227,-0.727007,30240.000000,161283.000000
912.989749,-0.694336,35053.000000,173405.000000
918.140932,-0.689596,39668.000000,194105.000000
921.999187,-0.683996,44171.000000,213370.000000
925.853041,-0.679426,49463.000000,236432.000000
929.702495,-0.676669,55176.000000,262071.000000
933.547549,-0.671442,62603.000000,293790.000000
937.388203,-0.667204,70557.000000,327902.000000
941.224457,-0.659719,79215.000000,361848.000000
946.332618,-0.652913,90003.000000,404734.000000
950.158605,-0.650857,97001.000000,434143.000000
953.980191,-0.643386,104340.000000,459025.000000
957.797378,-0.640114,111157.000000,485345.000000
961.610165,-0.639280,117414.000000,511682.000000
965.418551,-0.635751,124361.000000,537570.000000
969.222537,-0.632144,131496.000000,563711.000000
974.287675,-0.630261,140925.000000,601518.000000
978.081394,-0.628033,148023.000000,628583.000000
981.870713,-0.626914,155197.000000,657351.000000
985.655632,-0.626366,162010.000000,685343.000000
989.436151,-0.622089,170019.000000,712175.000000
993.212270,-0.621865,176266.000000,737962.000000
998.240251,-0.618244,184964.000000,767947.000000
1002.006103,-0.617341,190519.000000,789368.000000
1005.767554,-0.614563,196102.000000,807318.000000
1009.524606,-0.614779,200098.000000,824180.000000
1013.277258,-0.612219,204164.000000,835985.000000
1017.025509,-0.612099,206631.000000,845852.000000
1020.769360,-0.610962,209246.000000,854318.000000
1025.754318,-0.608568,211932.000000,860527.000000
1029.487902,-0.607423,213316.000000,863866.000000
1033.217086,-0.607173,213821.000000,865413.000000
1036.941870,-0.606516,213615.000000,863273.000000
1040.662255,-0.606332,213930.000000,864178.000000
1044.378238,-0.604780,213905.000000,860996.000000
1048.089822,-0.603763,213173.000000,856043.000000
1053.031756,-0.603061,211884.000000,849492.000000
1056.733073,-0.602307,211098.000000,844872.000000
1060.429990,-0.602193,209880.000000,839777.000000
1064.122506,-0.601473,209078.000000,835182.000000
1067.810623,-0.601101,208224.000000,831059.000000
1071.494339,-0.601843,206922.000000,827275.000000
1076.399116,-0.600475,206676.000000,823692.000000
1080.072566,-0.600724,206200.000000,822266.000000
1083.741615,-0.600697,205636.000000,819967.000000
1087.406264,-0.600341,205874.000000,820243.000000
1091.066513,-0.599845,205797.000000,819001.000000
1094.722362,-0.601321,205514.000000,820658.000000
1098.373811,-0.600890,205628.000000,820299.000000
1103.235565,-0.599269,206788.000000,821853.000000
1106.876747,-0.599641,206389.000000,820970.000000
1110.513529,-0.599897,206615.000000,822354.000000
1114.145910,-0.599814,206738.000000,822687.000000
1117.773892,-0.601140,206547.000000,824440.000000
1121.397473,-0.599882,207088.000000,824208.000000
1125.016654,-0.602049,206464.000000,825836.000000
1129.835385,-0.599988,207418.000000,825723.000000
1133.444299,-0.599263,207695.000000,825447.000000
1137.048813,-0.597638,208493.000000,825524.000000
1140.648927,-0.597394,208223.000000,823991.000000
1144.244641,-0.596113,208337.000000,822015.000000
1147.835955,-0.594778,208774.000000,821210.000000
1152.617529,-0.594852,208238.000000,819242.000000
1156.198576,-0.593448,208484.000000,817562.000000
1159.775223,-0.591982,208962.000000,816675.000000
1163.347470,-0.590464,209317.000000,815209.000000
1166.915316,-0.588542,209935.000000,814004.000000
1170.478763,-0.585820,211435.000000,814699.000000
1174.037809,-0.582248,213105.000000,814407.000000
1178.776359,-0.580021,214394.000000,815142.000000
1182.325139,-0.572382,217962.000000,814259.000000
1185.869518,-0.568696,220075.000000,815204.000000
1189.409497,-0.564565,222694.000000,817096.000000
1192.945076,-0.561879,224594.000000,818988.000000
1196.476255,-0.559972,226828.000000,823509.000000
1200.003034,-0.557358,229675.000000,828841.000000
1204.698561,-0.556097,232729.000000,837429.000000
1208.215073,-0.553930,235830.000000,844362.000000
1211.727185,-0.553560,238631.000000,853664.000000
1215.234896,-0.552178,241974.000000,862872.000000
1218.738208,-0.551106,245450.000000,873110.000000
1222.237119,-0.551006,248996.000000,885520.000000
1226.895489,-0.550604,254001.000000,902484.000000
1230.384134,-0.550244,257796.000000,915209.000000
1233.868378,-0.551891,261030.000000,930211.000000
1237.348222,-0.552963,264910.000000,946370.000000
1240.823666,-0.553283,269187.000000,962358.000000
1244.294710,-0.553744,274535.000000,982521.000000
1247.761354,-0.554772,278817.000000,1000209.000000
1252.376701,-0.556007,285943.000000,1028694.000000
1255.833078,-0.554788,292339.000000,1048757.000000
1259.285055,-0.554320,298387.000000,1069302.000000
1262.732632,-0.555396,303484.000000,1090264.000000
1266.175808,-0.555974,308643.000000,1110275.000000
1269.614584,-0.555326,313923.000000,1127585.000000
1273.048961,-0.555073,319097.000000,1145501.000000
1277.621284,-0.556911,324380.000000,1169405.000000
1281.045394,-0.556806,329793.000000,1188631.000000
1284.465103,-0.557978,333450.000000,1205060.000000
1287.880412,-0.559090,337104.000000,1221388.000000
1291.291321,-0.560070,340768.000000,1237453.000000
1294.697830,-0.560375,344605.000000,1252267.000000
1299.232997,-0.560253,349244.000000,1268766.000000
1302.629239,-0.561008,352441.000000,1282610.000000
1306.021081,-0.560626,355144.000000,1291309.000000
1309.408522,-0.560844,357732.000000,1301373.000000
1312.791564,-0.560272,360160.000000,1308480.000000
1316.170205,-0.560165,362173.000000,1315470.000000
1319.544447,-0.559986,364403.000000,1323026.000000
1324.036591,-0.559399,366317.000000,1328177.000000
1327.400565,-0.559701,366589.000000,1330088.000000
1330.760139,-0.557767,368623.000000,1331525.000000
1334.115313,-0.557550,368498.000000,1330408.000000
1337.466087,-0.555328,370046.000000,1329181.000000
1340.812461,-0.553867,370709.000000,1327090.000000
1344.154435,-0.551066,371502.000000,1321377.000000
1348.603555,-0.547796,371615.000000,1311866.000000
1351.935262,-0.545395,370997.000000,1302464.000000
1355.262569,-0.540374,371791.000000,1290248.000000
1358.585475,-0.537289,370879.000000,1277971.000000
1361.903982,-0.533764,370539.000000,1266478.000000
1365.218088,-0.528809,371657.000000,1255889.000000
1369.630052,-0.524110,372397.000000,1244847.000000
1372.933891,-0.521607,372524.000000,1238117.000000
1376.233331,-0.519308,372314.000000,1230886.000000
1379.528370,-0.517534,371243.000000,1222341.000000
1382.819009,-0.516690,369231.000000,1213357.000000
1386.105248,-0.514738,367705.000000,1202921.000000
1389.387087,-0.511863,367073.000000,1192931.000000
1393.756027,-0.508287,365715.000000,1178773.000000
1397.027599,-0.503449,365152.000000,1163919.000000
1400.294771,-0.497609,365097.000000,1148198.000000
1403.557542,-0.492122,364333.000000,1131412.000000
1406.815914,-0.483599,365413.000000,1112712.000000
1410.069885,-0.474722,365734.000000,1091158.000000
1413.319456,-0.465727,364947.000000,1066490.000000
1417.645373,-0.451398,365539.000000,1033550.000000
1420.884678,-0.442072,365230.000000,1010737.000000
1424.119582,-0.432512,365533.000000,989553.000000
1427.350086,-0.424610,364906.000000,970043.000000
1430.576190,-0.416580,365583.000000,954039.000000
1433.797894,-0.410024,365648.000000,939913.000000
1437.015198,-0.403960,365698.000000,927006.000000
1441.298091,-0.398929,364890.000000,914305.000000
1444.505128,-0.395512,364741.000000,906769.000000
1447.707765,-0.392025,364393.000000,898659.000000
1450.906001,-0.390250,363044.000000,891680.000000
1454.099838,-0.387015,362635.000000,884067.000000
1457.289274,-0.383292,361653.000000,874146.000000
1461.535011,-0.379674,360303.000000,863659.000000
1464.714180,-0.377129,358064.000000,853277.000000
1467.888950,-0.373938,356949.000000,844393.000000
1471.059319,-0.369784,355912.000000,833924.000000
1474.225288,-0.367896,353737.000000,825233.000000
1477.386857,-0.364842,352477.000000,816531.000000
1480.544025,-0.363787,349693.000000,808117.000000
1484.746739,-0.361825,347943.000000,800448.000000
1487.893641,-0.362547,344781.000000,794493.000000
1491.036142,-0.361907,342531.000000,788146.000000
1494.174244,-0.363392,340170.000000,785395.000000
1497.307945,-0.364125,337701.000000,781012.000000
1500.437247,-0.366530,334446.000000,777779.000000
1503.562148,-0.366813,331876.000000,772305.000000
1507.721838,-0.370310,327918.000000,769264.000000
1510.836473,-0.371856,324967.000000,765060.000000
1513.946707,-0.373447,321718.000000,760190.000000
1517.052541,-0.374344,319073.000000,755499.000000
1520.153975,-0.376551,315575.000000,751023.000000
1523.251008,-0.378566,311252.000000,744180.000000
1527.373542,-0.379179,306492.000000,733835.000000
1530.460309,-0.379448,302471.000000,724656.000000
1533.542676,-0.379810,298873.000000,716633.000000
1536.620642,-0.380101,294593.000000,706843.000000
1539.694209,-0.380838,290524.000000,698264.000000
1542.763375,-0.382541,285805.000000,689621.000000
1545.828141,-0.381721,281854.000000,678805.000000
1549.907652,-0.385115,274841.000000,667109.000000
1552.962151,-0.385766,270515.000000,657593.000000
1556.012250,-0.387531,265203.000000,647306.000000
1559.057949,-0.388936,260042.000000,636766.000000
1562.099248,-0.388541,255973.000000,626232.000000
1565.136147,-0.389985,250523.000000,614940.000000
1568.168646,-0.391366,245616.000000,604815.000000
1572.205133,-0.393876,238774.000000,591375.000000
1575.227365,-0.393566,234179.000000,579581.000000
1578.245196,-0.395246,228934.000000,568796.000000
1581.258628,-0.396717,223478.000000,557124.000000
1584.267659,-0.397731,218239.000000,545335.000000
1587.272290,-0.398668,213357.000000,534287.000000
1591.271621,-0.401974,206678.000000,521517.000000
1594.265985,-0.405505,200655.000000,510452.000000
1597.255949,-0.408547,196105.000000,502384.000000
1600.241513,-0.410550,191413.000000,492631.000000
1603.222677,-0.415265,186271.000000,484630.000000
1606.199441,-0.418611,181567.000000,476045.000000
1609.171805,-0.422635,176656.000000,467480.000000
1613.128112,-0.427793,170106.000000,455525.000000
1616.090209,-0.431476,165195.000000,446142.000000
1619.047905,-0.435640,160661.000000,438077.000000
1622.001202,-0.441925,154762.000000,428143.000000
1624.950098,-0.447518,149284.000000,418342.000000
1627.894595,-0.452238,144304.000000,408805.000000
1630.834691,-0.457438,138573.000000,397298.000000
1634.747975,-0.466080,131373.000000,384225.000000
1637.677804,-0.475620,126061.000000,376878.000000
1640.603233,-0.482716,120043.000000,364798.000000
1643.524262,-0.492695,114222.000000,355177.000000
1646.440891,-0.497921,109595.000000,344915.000000
1649.353120,-0.506386,104146.000000,334217.000000
1653.229247,-0.495818,102337.000000,320517.000000
1656.131209,-0.488440,100118.000000,308285.000000
1659.028770,-0.495460,95076.000000,297530.000000
1661.921932,-0.483600,93881.000000,285876.000000
1664.810693,-0.483350,90392.000000,275093.000000
1667.695055,-0.482395,85969.000000,261058.000000
1670.575016,-0.476201,82225.000000,246153.000000
1674.408120,-0.456894,78925.000000,226000.000000
1677.277814,-inf,0.000000,207812.000000
1680.143108,-inf,0.000000,187249.000000
1683.004002,nan,-2147483648.000000,165943.000000
1685.860496,nan,-2147483648.000000,144502.000000
1688.712590,nan,-2147483648.000000,123279.000000
1691.560283,nan,-2147483648.000000,102375.000000
1695.350364,nan,-2147483648.000000,80746.000000
1698.187790,nan,-2147483648.000000,69017.000000
1701.020817,-inf,0.000000,57814.000000
