Method:,erol,,
Host Date-Time:,7/12/23 @ 14:5:38,,
Header Version:,1,,
System Temp (C):,40.39,,
Detector Temp (C):,27.59,,
Humidity (%):,17.35,,
Lamp PD:,3514,,
Shift Vector Coefficients:,-4.80707,0.053312,-0.000138677,,
Pixel to Wavelength Coefficients:,1763.6,-0.910608,-0.000244451,,
Serial Number:,6110061,,
Scan Config Name:,erol,,
Scan Config Type:,Slew,,
Section 1,,
Start wavelength (nm):,900,,
End wavelength (nm):,1700,,
Pattern Pixel Width (nm):,  11.71,,,,
Exposure (ms):,  0.635,,,,
Digital Resolution:,228,,
Num Repeats:,1,,
PGA Gain:,64,,
Total Measurement Time in sec:,  1.593,,
Wavelength (nm),Absorbance (AU),Reference Signal (unitless),Sample Signal (unitless)
901.370984,-0.698495,22318.000000,111468.000000
905.248306,-0.688841,26694.000000,130393.000000
909.121227,-0.682368,30240.000000,145529.000000
912.989749,-0.655449,35053.000000,158553.000000
918.140932,-0.650457,39668.000000,177377.000000
921.999187,-0.644305,44171.000000,194734.000000
925.853041,-0.637400,49463.000000,214625.000000
929.702495,-0.637688,55176.000000,239573.000000
933.547549,-0.634246,62603.000000,269675.000000
937.388203,-0.629476,70557.000000,300619.000000
941.224457,-0.621823,79215.000000,331612.000000
946.332618,-0.614605,90003.000000,370563.000000
950.158605,-0.613965,97001.000000,398787.000000
953.980191,-0.607174,104340.000000,422304.000000
957.797378,-0.603220,111157.000000,445817.000000
961.610165,-0.602663,117414.000000,470309.000000
965.418551,-0.600051,124361.000000,495148.000000
969.222537,-0.596880,131496.000000,519748.000000
974.287675,-0.594612,140925.000000,554115.000000
978.081394,-0.592067,148023.000000,578624.000000
981.870713,-0.591696,155197.000000,606149.000000
985.655632,-0.591280,162010.000000,632152.000000
989.436151,-0.586797,170019.000000,656591.000000
993.212270,-0.586308,176266.000000,679950.000000
998.240251,-0.583465,184964.000000,708847.000000
1002.006103,-0.582358,190519.000000,728277.000000
1005.767554,-0.579824,196102.000000,745257.000000
1009.524606,-0.578785,200098.000000,758626.000000
1013.277258,-0.576153,204164.000000,769365.000000
1017.025509,-0.576407,206631.000000,779116.000000
1020.769360,-0.574108,209246.000000,784811.000000
1025.754318,-0.572010,211932.000000,791054.000000
1029.487902,-0.570118,213316.000000,792760.000000
1033.217086,-0.569503,213821.000000,793512.000000
1036.941870,-0.570079,213615.000000,793800.000000
1040.662255,-0.568496,213930.000000,792077.000000
1044.378238,-0.566278,213905.000000,787951.000000
1048.089822,-0.565583,213173.000000,783998.000000
1053.031756,-0.564899,211884.000000,778032.000000
1056.733073,-0.563755,211098.000000,773107.000000
1060.429990,-0.563054,209880.000000,767406.000000
1064.122506,-0.562139,209078.000000,762864.000000
1067.810623,-0.561410,208224.000000,758474.000000
1071.494339,-0.562661,206922.000000,755905.000000
1076.399116,-0.560771,206676.000000,751728.000000
1080.072566,-0.561217,206200.000000,750767.000000
1083.741615,-0.561223,205636.000000,748725.000000
1087.406264,-0.559192,205874.000000,746094.000000
1091.066513,-0.559091,205797.000000,745642.000000
1094.722362,-0.560402,205514.000000,746867.000000
1098.373811,-0.560356,205628.000000,747203.000000
1103.235565,-0.557816,206788.000000,747035.000000
1106.876747,-0.559697,206389.000000,748831.000000
1110.513529,-0.559475,206615.000000,749267.000000
1114.145910,-0.559554,206738.000000,749850.000000
1117.773892,-0.560087,206547.000000,750077.000000
1121.397473,-0.559747,207088.000000,751454.000000
1125.016654,-0.560823,206464.000000,751048.000000
1129.835385,-0.559151,207418.000000,751618.000000
1133.444299,-0.558520,207695.000000,751530.000000
1137.048813,-0.557069,208493.000000,751900.000000
1140.648927,-0.557158,208223.000000,751081.000000
1144.244641,-0.556360,208337.000000,750113.000000
1147.835955,-0.555336,208774.000000,749916.000000
1152.617529,-0.555680,208238.000000,748583.000000
1156.198576,-0.554741,208484.000000,747848.000000
1159.775223,-0.553876,208962.000000,748072.000000
1163.347470,-0.552698,209317.000000,747313.000000
1166.915316,-0.551454,209935.000000,747375.000000
1170.478763,-0.547923,211435.000000,746620.000000
1174.037809,-0.546205,213105.000000,749546.000000
1178.776359,-0.543673,214394.000000,749697.000000
1182.325139,-0.536460,217962.000000,749619.000000
1185.869518,-0.533722,220075.000000,752130.000000
1189.409497,-0.529571,222694.000000,753840.000000
1192.945076,-0.528041,224594.000000,757598.000000
1196.476255,-0.526645,226828.000000,762678.000000
1200.003034,-0.524057,229675.000000,767664.000000
1204.698561,-0.522990,232729.000000,775962.000000
1208.215073,-0.521266,235830.000000,783187.000000
1211.727185,-0.521090,238631.000000,792168.000000
1215.234896,-0.519550,241974.000000,800422.000000
1218.738208,-0.518191,245450.000000,809383.000000
1222.237119,-0.517972,248996.000000,820662.000000
1226.895489,-0.517831,254001.000000,836887.000000
1230.384134,-0.516823,257796.000000,847421.000000
1233.868378,-0.518104,261030.000000,860586.000000
1237.348222,-0.518545,264910.000000,874265.000000
1240.823666,-0.518672,269187.000000,888640.000000
1244.294710,-0.518288,274535.000000,905494.000000
1247.761354,-0.519375,278817.000000,921923.000000
1252.376701,-0.520193,285943.000000,947267.000000
1255.833078,-0.518942,292339.000000,965670.000000
1259.285055,-0.518367,298387.000000,984345.000000
1262.732632,-0.519111,303484.000000,1002876.000000
1266.175808,-0.519099,308643.000000,1019896.000000
1269.614584,-0.519158,313923.000000,1037484.000000
1273.048961,-0.518521,319097.000000,1053037.000000
1277.621284,-0.519994,324380.000000,1074109.000000
1281.045394,-0.519103,329793.000000,1089795.000000
1284.465103,-0.520277,333450.000000,1104862.000000
1287.880412,-0.520839,337104.000000,1118416.000000
1291.291321,-0.521637,340768.000000,1132649.000000
1294.697830,-0.521642,344605.000000,1145416.000000
1299.232997,-0.522023,349244.000000,1161854.000000
1302.629239,-0.521453,352441.000000,1170953.000000
1306.021081,-0.521180,355144.000000,1179192.000000
1309.408522,-0.521052,357732.000000,1187434.000000
1312.791564,-0.520908,360160.000000,1195099.000000
1316.170205,-0.520768,362173.000000,1201390.000000
1319.544447,-0.520213,364403.000000,1207243.000000
1324.036591,-0.520265,366317.000000,1213731.000000
1327.400565,-0.521346,366589.000000,1217659.000000
1330.760139,-0.519302,368623.000000,1218666.000000
1334.115313,-0.519724,368498.000000,1219436.000000
1337.466087,-0.517747,370046.000000,1218997.000000
1340.812461,-0.516642,370709.000000,1218079.000000
1344.154435,-0.514391,371502.000000,1214372.000000
1348.603555,-0.511683,371615.000000,1207191.000000
1351.935262,-0.509661,370997.000000,1199587.000000
1355.262569,-0.505833,371791.000000,1191603.000000
1358.585475,-0.503414,370879.000000,1182078.000000
1361.903982,-0.500413,370539.000000,1172863.000000
1365.218088,-0.495462,371657.000000,1163066.000000
1369.630052,-0.491454,372397.000000,1154676.000000
1372.933891,-0.489316,372524.000000,1149398.000000
1376.233331,-0.487653,372314.000000,1144358.000000
1379.528370,-0.485881,371243.000000,1136422.000000
1382.819009,-0.485244,369231.000000,1128606.000000
1386.105248,-0.484118,367705.000000,1121030.000000
1389.387087,-0.481404,367073.000000,1112131.000000
1393.756027,-0.478289,365715.000000,1100100.000000
1397.027599,-0.474358,365152.000000,1088509.000000
1400.294771,-0.469087,365097.000000,1075216.000000
1403.557542,-0.464266,364333.000000,1061119.000000
1406.815914,-0.456453,365413.000000,1045290.000000
1410.069885,-0.448422,365734.000000,1027041.000000
1413.319456,-0.440128,364947.000000,1005443.000000
1417.645373,-0.427131,365539.000000,977382.000000
1420.884678,-0.418049,365230.000000,956346.000000
1424.119582,-0.408838,365533.000000,937054.000000
1427.350086,-0.402585,364906.000000,922075.000000
1430.576190,-0.394249,365583.000000,906222.000000
1433.797894,-0.388172,365648.000000,893789.000000
1437.015198,-0.383211,365698.000000,883759.000000
1441.298091,-0.377560,364890.000000,870406.000000
1444.505128,-0.374473,364741.000000,863889.000000
1447.707765,-0.370818,364393.000000,855832.000000
1450.906001,-0.369033,363044.000000,849166.000000
1454.099838,-0.365386,362635.000000,841115.000000
1457.289274,-0.362246,361653.000000,832794.000000
1461.535011,-0.358598,360303.000000,822747.000000
1464.714180,-0.356086,358064.000000,812917.000000
1467.888950,-0.352934,356949.000000,804526.000000
1471.059319,-0.349078,355912.000000,795098.000000
1474.225288,-0.347150,353737.000000,786739.000000
1477.386857,-0.343694,352477.000000,777722.000000
1480.544025,-0.343059,349693.000000,770452.000000
1484.746739,-0.340555,347943.000000,762189.000000
1487.893641,-0.341293,344781.000000,756547.000000
1491.036142,-0.341298,342531.000000,751619.000000
1494.174244,-0.341667,340170.000000,747073.000000
1497.307945,-0.342045,337701.000000,742296.000000
1500.437247,-0.344939,334446.000000,740056.000000
1503.562148,-0.346057,331876.000000,736262.000000
1507.721838,-0.348590,327918.000000,731738.000000
1510.836473,-0.350217,324967.000000,727874.000000
1513.946707,-0.353203,321718.000000,725569.000000
1517.052541,-0.353445,319073.000000,720005.000000
1520.153975,-0.356024,315575.000000,716353.000000
1523.251008,-0.357398,311252.000000,708778.000000
1527.373542,-0.358965,306492.000000,700461.000000
1530.460309,-0.359514,302471.000000,692146.000000
1533.542676,-0.359797,298873.000000,684359.000000
1536.620642,-0.359875,294593.000000,674679.000000
1539.694209,-0.360106,290524.000000,665714.000000
1542.763375,-0.362293,285805.000000,658207.000000
1545.828141,-0.363479,281854.000000,650883.000000
1549.907652,-0.365982,274841.000000,638357.000000
1552.962151,-0.366885,270515.000000,629617.000000
1556.012250,-0.369586,265203.000000,621104.000000
1559.057949,-0.371344,260042.000000,611488.000000
1562.099248,-0.370660,255973.000000,600972.000000
1565.136147,-0.373596,250523.000000,592166.000000
1568.168646,-0.375349,245616.000000,582915.000000
1572.205133,-0.377386,238774.000000,569342.000000
1575.227365,-0.377664,234179.000000,558743.000000
1578.245196,-0.379718,228934.000000,548818.000000
1581.258628,-0.381732,223478.000000,538228.000000
1584.267659,-0.383590,218239.000000,527864.000000
1587.272290,-0.384846,213357.000000,517551.000000
1591.271621,-0.387853,206678.000000,504833.000000
1594.265985,-0.392245,200655.000000,495102.000000
1597.255949,-0.395039,196105.000000,486999.000000
1600.241513,-0.398112,191413.000000,478722.000000
1603.222677,-0.402277,186271.000000,470351.000000
1606.199441,-0.405424,181567.000000,461807.000000
1609.171805,-0.409787,176656.000000,453853.000000
1613.128112,-0.414050,170106.000000,441336.000000
1616.090209,-0.418813,165195.000000,433321.000000
1619.047905,-0.422077,160661.000000,424607.000000
1622.001202,-0.428875,154762.000000,415470.000000
1624.950098,-0.435276,149284.000000,406714.000000
1627.894595,-0.438377,144304.000000,395964.000000
1630.834691,-0.445578,138573.000000,386595.000000
1634.747975,-0.454536,131373.000000,374147.000000
1637.677804,-0.461756,126061.000000,365037.000000
1640.603233,-0.469272,120043.000000,353679.000000
1643.524262,-0.476828,114222.000000,342435.000000
1646.440891,-0.483246,109595.000000,333455.000000
1649.353120,-0.490853,104146.000000,322475.000000
1653.229247,-0.479905,102337.000000,308985.000000
1656.131209,-0.473596,100118.000000,297926.000000
1659.028770,-0.480333,95076.000000,287345.000000
1661.921932,-0.468643,93881.000000,276198.000000
1664.810693,-0.464820,90392.000000,263603.000000
1667.695055,-0.465297,85969.000000,250980.000000
1670.575016,-0.461053,82225.000000,237715.000000
1674.408120,-0.439191,78925.000000,216973.000000
1677.277814,-inf,0.000000,199512.000000
1680.143108,-inf,0.000000,179310.000000
1683.004002,nan,-2147483648.000000,158722.000000
1685.860496,nan,-2147483648.000000,138171.000000
1688.712590,nan,-2147483648.000000,117855.000000
1691.560283,nan,-2147483648.000000,99464.000000
1695.350364,nan,-2147483648.000000,77514.000000
1698.187790,nan,-2147483648.000000,65519.000000
1701.020817,-inf,0.000000,54768.000000
