Method:,erol,,
Host Date-Time:,7/12/23 @ 13:34:59,,
Header Version:,1,,
System Temp (C):,33.98,,
Detector Temp (C):,15.06,,
Humidity (%):,28.29,,
Lamp PD:,3649,,
Shift Vector Coefficients:,-4.80707,0.053312,-0.000138677,,
Pixel to Wavelength Coefficients:,1763.6,-0.910608,-0.000244451,,
Serial Number:,6110061,,
Scan Config Name:,erol,,
Scan Config Type:,Slew,,
Section 1,,
Start wavelength (nm):,900,,
End wavelength (nm):,1700,,
Pattern Pixel Width (nm):,  11.71,,,,
Exposure (ms):,  0.635,,,,
Digital Resolution:,228,,
Num Repeats:,1,,
PGA Gain:,64,,
Total Measurement Time in sec:,  1.593,,
Wavelength (nm),Absorbance (AU),Reference Signal (unitless),Sample Signal (unitless)
901.370984,-0.768845,22318.000000,131069.000000
905.248306,-0.755281,26694.000000,151948.000000
909.121227,-0.748501,30240.000000,169466.000000
912.989749,-0.721586,35053.000000,184634.000000
918.140932,-0.719168,39668.000000,207782.000000
921.999187,-0.712195,44171.000000,227684.000000
925.853041,-0.712204,49463.000000,254967.000000
929.702495,-0.713453,55176.000000,285235.000000
933.547549,-0.707937,62603.000000,319545.000000
937.388203,-0.703099,70557.000000,356155.000000
941.224457,-0.693559,79215.000000,391171.000000
946.332618,-0.683363,90003.000000,434130.000000
950.158605,-0.677694,97001.000000,461817.000000
953.980191,-0.669734,104340.000000,487736.000000
957.797378,-0.665449,111157.000000,514501.000000
961.610165,-0.663135,117414.000000,540574.000000
965.418551,-0.658516,124361.000000,566501.000000
969.222537,-0.656193,131496.000000,595807.000000
974.287675,-0.652743,140925.000000,633478.000000
978.081394,-0.651102,148023.000000,662875.000000
981.870713,-0.650023,155197.000000,693277.000000
985.655632,-0.648836,162010.000000,721735.000000
989.436151,-0.645001,170019.000000,750755.000000
993.212270,-0.643798,176266.000000,776188.000000
998.240251,-0.640954,184964.000000,809173.000000
1002.006103,-0.639862,190519.000000,831382.000000
1005.767554,-0.636852,196102.000000,849834.000000
1009.524606,-0.636460,200098.000000,866369.000000
1013.277258,-0.633964,204164.000000,878908.000000
1017.025509,-0.633461,206631.000000,888498.000000
1020.769360,-0.631713,209246.000000,896129.000000
1025.754318,-0.629178,211932.000000,902348.000000
1029.487902,-0.627993,213316.000000,905766.000000
1033.217086,-0.626699,213821.000000,905211.000000
1036.941870,-0.626841,213615.000000,904633.000000
1040.662255,-0.625370,213930.000000,902905.000000
1044.378238,-0.624130,213905.000000,900225.000000
1048.089822,-0.623934,213173.000000,896739.000000
1053.031756,-0.622849,211884.000000,889092.000000
1056.733073,-0.622254,211098.000000,884583.000000
1060.429990,-0.622520,209880.000000,880018.000000
1064.122506,-0.621430,209078.000000,874457.000000
1067.810623,-0.620598,208224.000000,869219.000000
1071.494339,-0.621450,206922.000000,865479.000000
1076.399116,-0.619768,206676.000000,861108.000000
1080.072566,-0.620418,206200.000000,860413.000000
1083.741615,-0.621177,205636.000000,859559.000000
1087.406264,-0.620547,205874.000000,859308.000000
1091.066513,-0.619284,205797.000000,856491.000000
1094.722362,-0.620811,205514.000000,858326.000000
1098.373811,-0.621024,205628.000000,859224.000000
1103.235565,-0.619385,206788.000000,860816.000000
1106.876747,-0.620591,206389.000000,861545.000000
1110.513529,-0.620150,206615.000000,861612.000000
1114.145910,-0.620804,206738.000000,863424.000000
1117.773892,-0.621124,206547.000000,863263.000000
1121.397473,-0.620360,207088.000000,864002.000000
1125.016654,-0.622391,206464.000000,865437.000000
1129.835385,-0.620676,207418.000000,866010.000000
1133.444299,-0.620325,207695.000000,866466.000000
1137.048813,-0.618301,208493.000000,865750.000000
1140.648927,-0.618127,208223.000000,864282.000000
1144.244641,-0.617982,208337.000000,864467.000000
1147.835955,-0.616656,208774.000000,863640.000000
1152.617529,-0.616836,208238.000000,861779.000000
1156.198576,-0.615397,208484.000000,859944.000000
1159.775223,-0.613401,208962.000000,857963.000000
1163.347470,-0.613095,209317.000000,858814.000000
1166.915316,-0.610847,209935.000000,856903.000000
1170.478763,-0.608105,211435.000000,857595.000000
1174.037809,-0.604615,213105.000000,857450.000000
1178.776359,-0.601025,214394.000000,855535.000000
1182.325139,-0.594606,217962.000000,857011.000000
1185.869518,-0.590846,220075.000000,857860.000000
1189.409497,-0.586550,222694.000000,859525.000000
1192.945076,-0.584547,224594.000000,862869.000000
1196.476255,-0.581593,226828.000000,865545.000000
1200.003034,-0.579417,229675.000000,872029.000000
1204.698561,-0.578737,232729.000000,882242.000000
1208.215073,-0.576261,235830.000000,888915.000000
1211.727185,-0.575774,238631.000000,898464.000000
1215.234896,-0.573937,241974.000000,907205.000000
1218.738208,-0.573837,245450.000000,920025.000000
1222.237119,-0.572430,248996.000000,930298.000000
1226.895489,-0.572522,254001.000000,949199.000000
1230.384134,-0.573215,257796.000000,964919.000000
1233.868378,-0.574375,261030.000000,979638.000000
1237.348222,-0.575415,264910.000000,996582.000000
1240.823666,-0.576076,269187.000000,1014214.000000
1244.294710,-0.575654,274535.000000,1033361.000000
1247.761354,-0.577145,278817.000000,1053086.000000
1252.376701,-0.577820,285943.000000,1081681.000000
1255.833078,-0.577434,292339.000000,1104895.000000
1259.285055,-0.577106,298387.000000,1126901.000000
1262.732632,-0.577747,303484.000000,1147844.000000
1266.175808,-0.578455,308643.000000,1169261.000000
1269.614584,-0.578241,313923.000000,1188677.000000
1273.048961,-0.577727,319097.000000,1206841.000000
1277.621284,-0.579654,324380.000000,1232276.000000
1281.045394,-0.579263,329793.000000,1251711.000000
1284.465103,-0.580556,333450.000000,1269366.000000
1287.880412,-0.582307,337104.000000,1288461.000000
1291.291321,-0.583103,340768.000000,1304855.000000
1294.697830,-0.583314,344605.000000,1320188.000000
1299.232997,-0.583929,349244.000000,1339854.000000
1302.629239,-0.584389,352441.000000,1353553.000000
1306.021081,-0.584112,355144.000000,1363065.000000
1309.408522,-0.583829,357732.000000,1372102.000000
1312.791564,-0.583678,360160.000000,1380935.000000
1316.170205,-0.583631,362173.000000,1388503.000000
1319.544447,-0.583492,364403.000000,1396607.000000
1324.036591,-0.583419,366317.000000,1403707.000000
1327.400565,-0.583690,366589.000000,1405625.000000
1330.760139,-0.581484,368623.000000,1406262.000000
1334.115313,-0.581678,368498.000000,1406413.000000
1337.466087,-0.580170,370046.000000,1407426.000000
1340.812461,-0.577971,370709.000000,1402828.000000
1344.154435,-0.576003,371502.000000,1399472.000000
1348.603555,-0.573006,371615.000000,1390269.000000
1351.935262,-0.570438,370997.000000,1379775.000000
1355.262569,-0.565973,371791.000000,1368586.000000
1358.585475,-0.562571,370879.000000,1354576.000000
1361.903982,-0.558950,370539.000000,1342098.000000
1365.218088,-0.553225,371657.000000,1328518.000000
1369.630052,-0.548711,372397.000000,1317398.000000
1372.933891,-0.545652,372524.000000,1308597.000000
1376.233331,-0.543407,372314.000000,1301118.000000
1379.528370,-0.541854,371243.000000,1292742.000000
1382.819009,-0.540729,369231.000000,1282412.000000
1386.105248,-0.539686,367705.000000,1274046.000000
1389.387087,-0.536995,367073.000000,1264001.000000
1393.756027,-0.533948,365715.000000,1250521.000000
1397.027599,-0.530625,365152.000000,1239077.000000
1400.294771,-0.525613,365097.000000,1224675.000000
1403.557542,-0.520872,364333.000000,1208845.000000
1406.815914,-0.513166,365413.000000,1191104.000000
1410.069885,-0.505888,365734.000000,1172340.000000
1413.319456,-0.498610,364947.000000,1150376.000000
1417.645373,-0.485998,365539.000000,1119262.000000
1420.884678,-0.477990,365230.000000,1097883.000000
1424.119582,-0.468697,365533.000000,1075532.000000
1427.350086,-0.462163,364906.000000,1057654.000000
1430.576190,-0.454828,365583.000000,1041872.000000
1433.797894,-0.449255,365648.000000,1028769.000000
1437.015198,-0.443483,365698.000000,1015326.000000
1441.298091,-0.438655,364890.000000,1001882.000000
1444.505128,-0.435138,364741.000000,993397.000000
1447.707765,-0.431371,364393.000000,983877.000000
1450.906001,-0.429326,363044.000000,975630.000000
1454.099838,-0.425530,362635.000000,966050.000000
1457.289274,-0.422118,361653.000000,955895.000000
1461.535011,-0.416786,360303.000000,940706.000000
1464.714180,-0.413821,358064.000000,928500.000000
1467.888950,-0.409712,356949.000000,916892.000000
1471.059319,-0.404677,355912.000000,903691.000000
1474.225288,-0.401363,353737.000000,891340.000000
1477.386857,-0.396970,352477.000000,879226.000000
1480.544025,-0.395406,349693.000000,869146.000000
1484.746739,-0.391711,347943.000000,857470.000000
1487.893641,-0.392040,344781.000000,850321.000000
1491.036142,-0.391655,342531.000000,844024.000000
1494.174244,-0.391520,340170.000000,837946.000000
1497.307945,-0.391607,337701.000000,832031.000000
1500.437247,-0.394125,334446.000000,828802.000000
1503.562148,-0.395163,331876.000000,824402.000000
1507.721838,-0.397852,327918.000000,819628.000000
1510.836473,-0.399347,324967.000000,815054.000000
1513.946707,-0.401134,321718.000000,810232.000000
1517.052541,-0.401262,319073.000000,803807.000000
1520.153975,-0.403106,315575.000000,798378.000000
1523.251008,-0.404528,311252.000000,790023.000000
1527.373542,-0.404452,306492.000000,777806.000000
1530.460309,-0.404433,302471.000000,767568.000000
1533.542676,-0.404214,298873.000000,758055.000000
1536.620642,-0.403539,294593.000000,746039.000000
1539.694209,-0.402998,290524.000000,734818.000000
1542.763375,-0.403748,285805.000000,724132.000000
1545.828141,-0.403971,281854.000000,714489.000000
1549.907652,-0.406369,274841.000000,700568.000000
1552.962151,-0.406927,270515.000000,690428.000000
1556.012250,-0.409447,265203.000000,680809.000000
1559.057949,-0.411340,260042.000000,670476.000000
1562.099248,-0.412220,255973.000000,661324.000000
1565.136147,-0.412433,250523.000000,647561.000000
1568.168646,-0.413983,245616.000000,637147.000000
1572.205133,-0.414748,238774.000000,620491.000000
1575.227365,-0.415706,234179.000000,609893.000000
1578.245196,-0.416908,228934.000000,597886.000000
1581.258628,-0.418589,223478.000000,585900.000000
1584.267659,-0.419115,218239.000000,572859.000000
1587.272290,-0.420850,213357.000000,562286.000000
1591.271621,-0.423100,206678.000000,547513.000000
1594.265985,-0.427930,200655.000000,537502.000000
1597.255949,-0.430822,196105.000000,528824.000000
1600.241513,-0.433398,191413.000000,519241.000000
1603.222677,-0.438159,186271.000000,510863.000000
1606.199441,-0.441328,181567.000000,501608.000000
1609.171805,-0.446244,176656.000000,493597.000000
1613.128112,-0.451042,170106.000000,480575.000000
1616.090209,-0.456023,165195.000000,472085.000000
1619.047905,-0.458941,160661.000000,462223.000000
1622.001202,-0.465342,154762.000000,451863.000000
1624.950098,-0.473032,149284.000000,443655.000000
1627.894595,-0.476697,144304.000000,432489.000000
1630.834691,-0.484341,138573.000000,422688.000000
1634.747975,-0.491230,131373.000000,407133.000000
1637.677804,-0.497502,126061.000000,396354.000000
1640.603233,-0.506882,120043.000000,385673.000000
1643.524262,-0.514955,114222.000000,373856.000000
1646.440891,-0.520484,109595.000000,363308.000000
1649.353120,-0.529312,104146.000000,352334.000000
1653.229247,-0.516460,102337.000000,336119.000000
1656.131209,-0.509970,100118.000000,323953.000000
1659.028770,-0.513789,95076.000000,310356.000000
1661.921932,-0.499369,93881.000000,296447.000000
1664.810693,-0.490905,90392.000000,279921.000000
1667.695055,-0.482164,85969.000000,260919.000000
1670.575016,-0.468057,82225.000000,241580.000000
1674.408120,-0.423812,78925.000000,209424.000000
1677.277814,-inf,0.000000,184539.000000
1680.143108,-inf,0.000000,158237.000000
1683.004002,nan,-2147483648.000000,133179.000000
1685.860496,nan,-2147483648.000000,111519.000000
1688.712590,nan,-2147483648.000000,94006.000000
1691.560283,nan,-2147483648.000000,76905.000000
1695.350364,nan,-2147483648.000000,61086.000000
1698.187790,nan,-2147483648.000000,52443.000000
1701.020817,-inf,0.000000,44319.000000
