Method:,erol,,
Host Date-Time:,7/12/23 @ 13:35:25,,
Header Version:,1,,
System Temp (C):,34.18,,
Detector Temp (C):,15.27,,
Humidity (%):,28.06,,
Lamp PD:,3646,,
Shift Vector Coefficients:,-4.80707,0.053312,-0.000138677,,
Pixel to Wavelength Coefficients:,1763.6,-0.910608,-0.000244451,,
Serial Number:,6110061,,
Scan Config Name:,erol,,
Scan Config Type:,Slew,,
Section 1,,
Start wavelength (nm):,900,,
End wavelength (nm):,1700,,
Pattern Pixel Width (nm):,  11.71,,,,
Exposure (ms):,  0.635,,,,
Digital Resolution:,228,,
Num Repeats:,1,,
PGA Gain:,64,,
Total Measurement Time in sec:,  1.594,,
Wavelength (nm),Absorbance (AU),Reference Signal (unitless),Sample Signal (unitless)
901.370984,-0.367273,22318.000000,51991.000000
905.248306,-0.358018,26694.000000,60874.000000
909.121227,-0.339547,30240.000000,66089.000000
912.989749,-0.318395,35053.000000,72966.000000
918.140932,-0.316854,39668.000000,82280.000000
921.999187,-0.308753,44171.000000,89927.000000
925.853041,-0.310514,49463.000000,101110.000000
929.702495,-0.305326,55176.000000,111449.000000
933.547549,-0.301273,62603.000000,125276.000000
937.388203,-0.298626,70557.000000,140335.000000
941.224457,-0.289817,79215.000000,154392.000000
946.332618,-0.275765,90003.000000,169833.000000
950.158605,-0.270482,97001.000000,180825.000000
953.980191,-0.265425,104340.000000,192254.000000
957.797378,-0.258205,111157.000000,201438.000000
961.610165,-0.255734,117414.000000,211570.000000
965.418551,-0.253258,124361.000000,222814.000000
969.222537,-0.248980,131496.000000,233288.000000
974.287675,-0.243134,140925.000000,246673.000000
978.081394,-0.242350,148023.000000,258630.000000
981.870713,-0.241586,155197.000000,270688.000000
985.655632,-0.239662,162010.000000,281322.000000
989.436151,-0.235778,170019.000000,292601.000000
993.212270,-0.236196,176266.000000,303644.000000
998.240251,-0.232707,184964.000000,316078.000000
1002.006103,-0.231734,190519.000000,324842.000000
1005.767554,-0.228458,196102.000000,331849.000000
1009.524606,-0.226816,200098.000000,337333.000000
1013.277258,-0.225617,204164.000000,343239.000000
1017.025509,-0.224104,206631.000000,346178.000000
1020.769360,-0.222183,209246.000000,349012.000000
1025.754318,-0.219992,211932.000000,351713.000000
1029.487902,-0.218423,213316.000000,352733.000000
1033.217086,-0.218039,213821.000000,353256.000000
1036.941870,-0.217822,213615.000000,352739.000000
1040.662255,-0.217167,213930.000000,352727.000000
1044.378238,-0.214390,213905.000000,350438.000000
1048.089822,-0.214420,213173.000000,349263.000000
1053.031756,-0.215444,211884.000000,347970.000000
1056.733073,-0.213536,211098.000000,345160.000000
1060.429990,-0.214759,209880.000000,344136.000000
1064.122506,-0.213708,209078.000000,341992.000000
1067.810623,-0.212652,208224.000000,339768.000000
1071.494339,-0.214144,206922.000000,338806.000000
1076.399116,-0.214885,206676.000000,338981.000000
1080.072566,-0.212424,206200.000000,336289.000000
1083.741615,-0.213355,205636.000000,336089.000000
1087.406264,-0.210937,205874.000000,334610.000000
1091.066513,-0.212190,205797.000000,335451.000000
1094.722362,-0.213804,205514.000000,336237.000000
1098.373811,-0.214345,205628.000000,336843.000000
1103.235565,-0.210718,206788.000000,335926.000000
1106.876747,-0.213969,206389.000000,337797.000000
1110.513529,-0.212326,206615.000000,336890.000000
1114.145910,-0.212815,206738.000000,337470.000000
1117.773892,-0.214150,206547.000000,338196.000000
1121.397473,-0.212767,207088.000000,338004.000000
1125.016654,-0.214556,206464.000000,338377.000000
1129.835385,-0.212527,207418.000000,338356.000000
1133.444299,-0.213813,207695.000000,339812.000000
1137.048813,-0.209499,208493.000000,337746.000000
1140.648927,-0.210515,208223.000000,338099.000000
1144.244641,-0.210393,208337.000000,338189.000000
1147.835955,-0.208109,208774.000000,337121.000000
1152.617529,-0.207305,208238.000000,335633.000000
1156.198576,-0.207437,208484.000000,336132.000000
1159.775223,-0.205549,208962.000000,335441.000000
1163.347470,-0.204365,209317.000000,335096.000000
1166.915316,-0.203397,209935.000000,335337.000000
1170.478763,-0.197989,211435.000000,333554.000000
1174.037809,-0.195200,213105.000000,334036.000000
1178.776359,-0.193631,214394.000000,334845.000000
1182.325139,-0.186572,217962.000000,334929.000000
1185.869518,-0.183405,220075.000000,335719.000000
1189.409497,-0.179040,222694.000000,336317.000000
1192.945076,-0.175369,224594.000000,336331.000000
1196.476255,-0.173791,226828.000000,338445.000000
1200.003034,-0.168877,229675.000000,338837.000000
1204.698561,-0.170423,232729.000000,344567.000000
1208.215073,-0.167603,235830.000000,346898.000000
1211.727185,-0.168282,238631.000000,351568.000000
1215.234896,-0.165433,241974.000000,354162.000000
1218.738208,-0.163217,245450.000000,357421.000000
1222.237119,-0.164373,248996.000000,363551.000000
1226.895489,-0.164569,254001.000000,371026.000000
1230.384134,-0.165367,257796.000000,377262.000000
1233.868378,-0.166204,261030.000000,382732.000000
1237.348222,-0.167218,264910.000000,389329.000000
1240.823666,-0.168107,269187.000000,396425.000000
1244.294710,-0.166546,274535.000000,402850.000000
1247.761354,-0.169461,278817.000000,411889.000000
1252.376701,-0.170383,285943.000000,423314.000000
1255.833078,-0.169420,292339.000000,431824.000000
1259.285055,-0.168641,298387.000000,439968.000000
1262.732632,-0.169708,303484.000000,448584.000000
1266.175808,-0.169548,308643.000000,456042.000000
1269.614584,-0.169025,313923.000000,463285.000000
1273.048961,-0.168840,319097.000000,470720.000000
1277.621284,-0.169713,324380.000000,479476.000000
1281.045394,-0.170597,329793.000000,488471.000000
1284.465103,-0.171647,333450.000000,495083.000000
1287.880412,-0.173665,337104.000000,502839.000000
1291.291321,-0.174569,340768.000000,509364.000000
1294.697830,-0.173708,344605.000000,514079.000000
1299.232997,-0.174853,349244.000000,522375.000000
1302.629239,-0.174022,352441.000000,526149.000000
1306.021081,-0.175301,355144.000000,531747.000000
1309.408522,-0.175441,357732.000000,535795.000000
1312.791564,-0.174197,360160.000000,537889.000000
1316.170205,-0.174756,362173.000000,541592.000000
1319.544447,-0.173818,364403.000000,543751.000000
1324.036591,-0.174027,366317.000000,546870.000000
1327.400565,-0.174744,366589.000000,548180.000000
1330.760139,-0.173172,368623.000000,549230.000000
1334.115313,-0.172986,368498.000000,548809.000000
1337.466087,-0.170328,370046.000000,547752.000000
1340.812461,-0.169280,370709.000000,547411.000000
1344.154435,-0.166935,371502.000000,545628.000000
1348.603555,-0.163357,371615.000000,541315.000000
1351.935262,-0.161666,370997.000000,538315.000000
1355.262569,-0.155618,371791.000000,532007.000000
1358.585475,-0.152160,370879.000000,526493.000000
1361.903982,-0.148500,370539.000000,521596.000000
1365.218088,-0.142675,371657.000000,516199.000000
1369.630052,-0.137557,372397.000000,511168.000000
1372.933891,-0.135410,372524.000000,508820.000000
1376.233331,-0.132038,372314.000000,504600.000000
1379.528370,-0.130934,371243.000000,501871.000000
1382.819009,-0.130580,369231.000000,498745.000000
1386.105248,-0.129775,367705.000000,495763.000000
1389.387087,-0.126894,367073.000000,491639.000000
1393.756027,-0.122393,365715.000000,484770.000000
1397.027599,-0.119201,365152.000000,480479.000000
1400.294771,-0.114619,365097.000000,475365.000000
1403.557542,-0.109090,364333.000000,468369.000000
1406.815914,-0.102371,365413.000000,462546.000000
1410.069885,-0.095090,365734.000000,455256.000000
1413.319456,-0.087665,364947.000000,446575.000000
1417.645373,-0.076169,365539.000000,435615.000000
1420.884678,-0.067715,365230.000000,426856.000000
1424.119582,-0.059114,365533.000000,418833.000000
1427.350086,-0.052455,364906.000000,411752.000000
1430.576190,-0.044403,365583.000000,404938.000000
1433.797894,-0.039300,365648.000000,400279.000000
1437.015198,-0.034136,365698.000000,395602.000000
1441.298091,-0.028479,364890.000000,389620.000000
1444.505128,-0.025314,364741.000000,386633.000000
1447.707765,-0.021829,364393.000000,383177.000000
1450.906001,-0.019575,363044.000000,379782.000000
1454.099838,-0.015225,362635.000000,375573.000000
1457.289274,-0.012391,361653.000000,372120.000000
1461.535011,-0.006146,360303.000000,365438.000000
1464.714180,-0.004187,358064.000000,361533.000000
1467.888950,0.000474,356949.000000,356560.000000
1471.059319,0.006174,355912.000000,350888.000000
1474.225288,0.009002,353737.000000,346480.000000
1477.386857,0.012847,352477.000000,342203.000000
1480.544025,0.013767,349693.000000,338782.000000
1484.746739,0.020017,347943.000000,332270.000000
1487.893641,0.019571,344781.000000,329589.000000
1491.036142,0.017909,342531.000000,328693.000000
1494.174244,0.019765,340170.000000,325036.000000
1497.307945,0.018096,337701.000000,323919.000000
1500.437247,0.017114,334446.000000,321523.000000
1503.562148,0.015278,331876.000000,320404.000000
1507.721838,0.011736,327918.000000,319175.000000
1510.836473,0.010590,324967.000000,317139.000000
1513.946707,0.010591,321718.000000,313967.000000
1517.052541,0.009709,319073.000000,312019.000000
1520.153975,0.006668,315575.000000,310767.000000
1523.251008,0.006202,311252.000000,306839.000000
1527.373542,0.006769,306492.000000,301752.000000
1530.460309,0.006759,302471.000000,297800.000000
1533.542676,0.006671,298873.000000,294317.000000
1536.620642,0.007523,294593.000000,289534.000000
1539.694209,0.007600,290524.000000,285484.000000
1542.763375,0.005799,285805.000000,282014.000000
1545.828141,0.007468,281854.000000,277049.000000
1549.907652,0.004650,274841.000000,271914.000000
1552.962151,0.003436,270515.000000,268383.000000
1556.012250,0.004216,265203.000000,262641.000000
1559.057949,-0.001504,260042.000000,260944.000000
1562.099248,0.002320,255973.000000,254609.000000
1565.136147,-0.001091,250523.000000,251153.000000
1568.168646,-0.001599,245616.000000,246522.000000
1572.205133,-0.002902,238774.000000,240375.000000
1575.227365,-0.003544,234179.000000,236098.000000
1578.245196,-0.003126,228934.000000,230588.000000
1581.258628,-0.007483,223478.000000,227362.000000
1584.267659,-0.007653,218239.000000,222119.000000
1587.272290,-0.008560,213357.000000,217604.000000
1591.271621,-0.009219,206678.000000,211112.000000
1594.265985,-0.015033,200655.000000,207722.000000
1597.255949,-0.017001,196105.000000,203934.000000
1600.241513,-0.019905,191413.000000,200390.000000
1603.222677,-0.026096,186271.000000,197807.000000
1606.199441,-0.028285,181567.000000,193786.000000
1609.171805,-0.034766,176656.000000,191379.000000
1613.128112,-0.038847,170106.000000,186023.000000
1616.090209,-0.042518,165195.000000,182186.000000
1619.047905,-0.046831,160661.000000,178954.000000
1622.001202,-0.053014,154762.000000,174855.000000
1624.950098,-0.059021,149284.000000,171015.000000
1627.894595,-0.061799,144304.000000,166371.000000
1630.834691,-0.072956,138573.000000,163921.000000
1634.747975,-0.078956,131373.000000,157566.000000
1637.677804,-0.082228,126061.000000,152338.000000
1640.603233,-0.091406,120043.000000,148164.000000
1643.524262,-0.102488,114222.000000,144623.000000
1646.440891,-0.105393,109595.000000,139696.000000
1649.353120,-0.113796,104146.000000,135344.000000
1653.229247,-0.100476,102337.000000,128976.000000
1656.131209,-0.099307,100118.000000,125840.000000
1659.028770,-0.099983,95076.000000,119689.000000
1661.921932,-0.089037,93881.000000,115243.000000
1664.810693,-0.076843,90392.000000,107888.000000
1667.695055,-0.070701,85969.000000,101168.000000
1670.575016,-0.052684,82225.000000,92830.000000
1674.408120,-0.009734,78925.000000,80714.000000
1677.277814,-inf,0.000000,71333.000000
1680.143108,-inf,0.000000,61665.000000
1683.004002,nan,-2147483648.000000,53253.000000
1685.860496,nan,-2147483648.000000,43763.000000
1688.712590,nan,-2147483648.000000,36293.000000
1691.560283,nan,-2147483648.000000,29752.000000
1695.350364,nan,-2147483648.000000,22004.000000
1698.187790,nan,-2147483648.000000,19901.000000
1701.020817,-inf,0.000000,16469.000000
