Method:,erol,,
Host Date-Time:,7/12/23 @ 13:51:42,,
Header Version:,1,,
System Temp (C):,38.72,,
Detector Temp (C):,24.62,,
Humidity (%):,20.56,,
Lamp PD:,3547,,
Shift Vector Coefficients:,-4.80707,0.053312,-0.000138677,,
Pixel to Wavelength Coefficients:,1763.6,-0.910608,-0.000244451,,
Serial Number:,6110061,,
Scan Config Name:,erol,,
Scan Config Type:,Slew,,
Section 1,,
Start wavelength (nm):,900,,
End wavelength (nm):,1700,,
Pattern Pixel Width (nm):,  11.71,,,,
Exposure (ms):,  0.635,,,,
Digital Resolution:,228,,
Num Repeats:,1,,
PGA Gain:,64,,
Total Measurement Time in sec:,  1.657,,
Wavelength (nm),Absorbance (AU),Reference Signal (unitless),Sample Signal (unitless)
901.370984,-0.744542,22318.000000,123936.000000
905.248306,-0.732919,26694.000000,144322.000000
909.121227,-0.725772,30240.000000,160825.000000
912.989749,-0.696313,35053.000000,174196.000000
918.140932,-0.691795,39668.000000,195090.000000
921.999187,-0.686369,44171.000000,214539.000000
925.853041,-0.682017,49463.000000,237847.000000
929.702495,-0.681735,55176.000000,265146.000000
933.547549,-0.676259,62603.000000,297067.000000
937.388203,-0.672400,70557.000000,331849.000000
941.224457,-0.663568,79215.000000,365069.000000
946.332618,-0.655924,90003.000000,407550.000000
950.158605,-0.652670,97001.000000,435960.000000
953.980191,-0.647000,104340.000000,462861.000000
957.797378,-0.642484,111157.000000,488001.000000
961.610165,-0.641857,117414.000000,514727.000000
965.418551,-0.638455,124361.000000,540928.000000
969.222537,-0.635944,131496.000000,568665.000000
974.287675,-0.632642,140925.000000,604826.000000
978.081394,-0.631328,148023.000000,633370.000000
981.870713,-0.630384,155197.000000,662625.000000
985.655632,-0.629129,162010.000000,689717.000000
989.436151,-0.626611,170019.000000,719629.000000
993.212270,-0.626204,176266.000000,745371.000000
998.240251,-0.623623,184964.000000,777518.000000
1002.006103,-0.622411,190519.000000,798637.000000
1005.767554,-0.618980,196102.000000,815571.000000
1009.524606,-0.619207,200098.000000,832626.000000
1013.277258,-0.616645,204164.000000,844548.000000
1017.025509,-0.616587,206631.000000,854639.000000
1020.769360,-0.614069,209246.000000,860452.000000
1025.754318,-0.612565,211932.000000,868484.000000
1029.487902,-0.610937,213316.000000,870884.000000
1033.217086,-0.610638,213821.000000,872346.000000
1036.941870,-0.611223,213615.000000,872679.000000
1040.662255,-0.609077,213930.000000,869658.000000
1044.378238,-0.608413,213905.000000,868229.000000
1048.089822,-0.607297,213173.000000,863036.000000
1053.031756,-0.606520,211884.000000,856284.000000
1056.733073,-0.606025,211098.000000,852137.000000
1060.429990,-0.605795,209880.000000,846771.000000
1064.122506,-0.604161,209078.000000,840368.000000
1067.810623,-0.604096,208224.000000,836810.000000
1071.494339,-0.604802,206922.000000,832930.000000
1076.399116,-0.603652,206676.000000,829740.000000
1080.072566,-0.603793,206200.000000,828098.000000
1083.741615,-0.603797,205636.000000,825840.000000
1087.406264,-0.603021,205874.000000,825321.000000
1091.066513,-0.602714,205797.000000,824428.000000
1094.722362,-0.603708,205514.000000,825182.000000
1098.373811,-0.603508,205628.000000,825259.000000
1103.235565,-0.601414,206788.000000,825922.000000
1106.876747,-0.603066,206389.000000,827471.000000
1110.513529,-0.602354,206615.000000,827019.000000
1114.145910,-0.602315,206738.000000,827437.000000
1117.773892,-0.602298,206547.000000,826641.000000
1121.397473,-0.601891,207088.000000,828030.000000
1125.016654,-0.603736,206464.000000,829049.000000
1129.835385,-0.602070,207418.000000,829692.000000
1133.444299,-0.601875,207695.000000,830426.000000
1137.048813,-0.599541,208493.000000,829149.000000
1140.648927,-0.600240,208223.000000,829408.000000
1144.244641,-0.599680,208337.000000,828793.000000
1147.835955,-0.598449,208774.000000,828181.000000
1152.617529,-0.598610,208238.000000,826361.000000
1156.198576,-0.597666,208484.000000,825541.000000
1159.775223,-0.595728,208962.000000,823749.000000
1163.347470,-0.594977,209317.000000,823724.000000
1166.915316,-0.594179,209935.000000,824639.000000
1170.478763,-0.591348,211435.000000,825134.000000
1174.037809,-0.587717,213105.000000,824728.000000
1178.776359,-0.586051,214394.000000,826539.000000
1182.325139,-0.579274,217962.000000,827285.000000
1185.869518,-0.576405,220075.000000,829805.000000
1189.409497,-0.572382,222694.000000,831937.000000
1192.945076,-0.570411,224594.000000,835235.000000
1196.476255,-0.568418,226828.000000,839682.000000
1200.003034,-0.566224,229675.000000,845936.000000
1204.698561,-0.565628,232729.000000,856010.000000
1208.215073,-0.563896,235830.000000,863963.000000
1211.727185,-0.563090,238631.000000,872603.000000
1215.234896,-0.561834,241974.000000,882272.000000
1218.738208,-0.560939,245450.000000,893105.000000
1222.237119,-0.560122,248996.000000,904304.000000
1226.895489,-0.559871,254001.000000,921948.000000
1230.384134,-0.559927,257796.000000,935843.000000
1233.868378,-0.561430,261030.000000,950868.000000
1237.348222,-0.562267,264910.000000,966865.000000
1240.823666,-0.562287,269187.000000,982520.000000
1244.294710,-0.561695,274535.000000,1000675.000000
1247.761354,-0.563171,278817.000000,1019742.000000
1252.376701,-0.564080,285943.000000,1047995.000000
1255.833078,-0.563530,292339.000000,1070082.000000
1259.285055,-0.562657,298387.000000,1090027.000000
1262.732632,-0.563754,303484.000000,1111450.000000
1266.175808,-0.564199,308643.000000,1131503.000000
1269.614584,-0.563921,313923.000000,1150122.000000
1273.048961,-0.563180,319097.000000,1167085.000000
1277.621284,-0.565448,324380.000000,1192621.000000
1281.045394,-0.563885,329793.000000,1208166.000000
1284.465103,-0.565646,333450.000000,1226527.000000
1287.880412,-0.566547,337104.000000,1242541.000000
1291.291321,-0.567259,340768.000000,1258109.000000
1294.697830,-0.567174,344605.000000,1272026.000000
1299.232997,-0.567777,349244.000000,1290939.000000
1302.629239,-0.567355,352441.000000,1301493.000000
1306.021081,-0.567563,355144.000000,1312102.000000
1309.408522,-0.567393,357732.000000,1321145.000000
1312.791564,-0.566784,360160.000000,1328248.000000
1316.170205,-0.567567,362173.000000,1338082.000000
1319.544447,-0.566876,364403.000000,1344181.000000
1324.036591,-0.566620,366317.000000,1350444.000000
1327.400565,-0.566926,366589.000000,1352401.000000
1330.760139,-0.565063,368623.000000,1354084.000000
1334.115313,-0.565605,368498.000000,1355314.000000
1337.466087,-0.563471,370046.000000,1354337.000000
1340.812461,-0.562469,370709.000000,1353636.000000
1344.154435,-0.560330,371502.000000,1349868.000000
1348.603555,-0.557861,371615.000000,1342622.000000
1351.935262,-0.555708,370997.000000,1333761.000000
1355.262569,-0.551485,371791.000000,1323682.000000
1358.585475,-0.548715,370879.000000,1312042.000000
1361.903982,-0.546021,370539.000000,1302733.000000
1365.218088,-0.541633,371657.000000,1293526.000000
1369.630052,-0.537450,372397.000000,1283679.000000
1372.933891,-0.534981,372524.000000,1276837.000000
1376.233331,-0.533170,372314.000000,1270807.000000
1379.528370,-0.531428,371243.000000,1262077.000000
1382.819009,-0.530953,369231.000000,1253867.000000
1386.105248,-0.529742,367705.000000,1245207.000000
1389.387087,-0.527814,367073.000000,1237560.000000
1393.756027,-0.523739,365715.000000,1221468.000000
1397.027599,-0.520518,365152.000000,1210575.000000
1400.294771,-0.516036,365097.000000,1197965.000000
1403.557542,-0.511242,364333.000000,1182336.000000
1406.815914,-0.503767,365413.000000,1165603.000000
1410.069885,-0.496210,365734.000000,1146504.000000
1413.319456,-0.488849,364947.000000,1124808.000000
1417.645373,-0.476329,365539.000000,1094618.000000
1420.884678,-0.468122,365230.000000,1073218.000000
1424.119582,-0.459508,365533.000000,1053014.000000
1427.350086,-0.453627,364906.000000,1037069.000000
1430.576190,-0.446354,365583.000000,1021738.000000
1433.797894,-0.440374,365648.000000,1007946.000000
1437.015198,-0.435456,365698.000000,996733.000000
1441.298091,-0.430830,364890.000000,983992.000000
1444.505128,-0.427320,364741.000000,975674.000000
1447.707765,-0.424077,364393.000000,967492.000000
1450.906001,-0.421459,363044.000000,958117.000000
1454.099838,-0.418295,362635.000000,950090.000000
1457.289274,-0.415248,361653.000000,940892.000000
1461.535011,-0.410694,360303.000000,927602.000000
1464.714180,-0.407794,358064.000000,915702.000000
1467.888950,-0.404300,356949.000000,905536.000000
1471.059319,-0.400454,355912.000000,894945.000000
1474.225288,-0.397834,353737.000000,884127.000000
1477.386857,-0.394051,352477.000000,873336.000000
1480.544025,-0.393136,349693.000000,864615.000000
1484.746739,-0.390283,347943.000000,854655.000000
1487.893641,-0.391520,344781.000000,849304.000000
1491.036142,-0.390746,342531.000000,842260.000000
1494.174244,-0.391061,340170.000000,837060.000000
1497.307945,-0.392583,337701.000000,833902.000000
1500.437247,-0.394453,334446.000000,829428.000000
1503.562148,-0.396199,331876.000000,826370.000000
1507.721838,-0.398904,327918.000000,821617.000000
1510.836473,-0.400482,324967.000000,817186.000000
1513.946707,-0.402539,321718.000000,812858.000000
1517.052541,-0.403642,319073.000000,808224.000000
1520.153975,-0.405165,315575.000000,802173.000000
1523.251008,-0.407547,311252.000000,795535.000000
1527.373542,-0.408062,306492.000000,784298.000000
1530.460309,-0.408190,302471.000000,774237.000000
1533.542676,-0.407998,298873.000000,764688.000000
1536.620642,-0.407698,294593.000000,753217.000000
1539.694209,-0.408180,290524.000000,743638.000000
1542.763375,-0.408691,285805.000000,732421.000000
1545.828141,-0.409410,281854.000000,723493.000000
1549.907652,-0.412088,274841.000000,709855.000000
1552.962151,-0.412084,270515.000000,698676.000000
1556.012250,-0.413156,265203.000000,686648.000000
1559.057949,-0.416283,260042.000000,678151.000000
1562.099248,-0.415752,255973.000000,666724.000000
1565.136147,-0.417321,250523.000000,654890.000000
1568.168646,-0.418040,245616.000000,643127.000000
1572.205133,-0.419286,238774.000000,627008.000000
1575.227365,-0.419935,234179.000000,615862.000000
1578.245196,-0.421641,228934.000000,604438.000000
1581.258628,-0.423082,223478.000000,591993.000000
1584.267659,-0.423905,218239.000000,579212.000000
1587.272290,-0.426942,213357.000000,570228.000000
1591.271621,-0.428139,206678.000000,553903.000000
1594.265985,-0.433061,200655.000000,543890.000000
1597.255949,-0.435671,196105.000000,534761.000000
1600.241513,-0.438591,191413.000000,525487.000000
1603.222677,-0.442679,186271.000000,516207.000000
1606.199441,-0.446235,181567.000000,507308.000000
1609.171805,-0.449415,176656.000000,497214.000000
1613.128112,-0.454864,170106.000000,484824.000000
1616.090209,-0.459408,165195.000000,475779.000000
1619.047905,-0.460580,160661.000000,463971.000000
1622.001202,-0.468907,154762.000000,455587.000000
1624.950098,-0.474669,149284.000000,445330.000000
1627.894595,-0.479490,144304.000000,435280.000000
1630.834691,-0.485994,138573.000000,424300.000000
1634.747975,-0.494392,131373.000000,410108.000000
1637.677804,-0.500946,126061.000000,399509.000000
1640.603233,-0.509337,120043.000000,387859.000000
1643.524262,-0.517808,114222.000000,376320.000000
1646.440891,-0.522824,109595.000000,365271.000000
1649.353120,-0.530956,104146.000000,353670.000000
1653.229247,-0.519101,102337.000000,338169.000000
1656.131209,-0.513359,100118.000000,326491.000000
1659.028770,-0.520449,95076.000000,315152.000000
1661.921932,-0.508720,93881.000000,302899.000000
1664.810693,-0.506488,90392.000000,290147.000000
1667.695055,-0.504991,85969.000000,275000.000000
1670.575016,-0.497421,82225.000000,258479.000000
1674.408120,-0.471777,78925.000000,233879.000000
1677.277814,-inf,0.000000,212885.000000
1680.143108,-inf,0.000000,190708.000000
1683.004002,nan,-2147483648.000000,166747.000000
1685.860496,nan,-2147483648.000000,142355.000000
1688.712590,nan,-2147483648.000000,120348.000000
1691.560283,nan,-2147483648.000000,100985.000000
1695.350364,nan,-2147483648.000000,80034.000000
1698.187790,nan,-2147483648.000000,66466.000000
1701.020817,-inf,0.000000,56108.000000
