Method:,erol,,
Host Date-Time:,7/12/23 @ 13:54:57,,
Header Version:,1,,
System Temp (C):,39.4,,
Detector Temp (C):,24.53,,
Humidity (%):,19.79,,
Lamp PD:,3496,,
Shift Vector Coefficients:,-4.80707,0.053312,-0.000138677,,
Pixel to Wavelength Coefficients:,1763.6,-0.910608,-0.000244451,,
Serial Number:,6110061,,
Scan Config Name:,erol,,
Scan Config Type:,Slew,,
Section 1,,
Start wavelength (nm):,900,,
End wavelength (nm):,1700,,
Pattern Pixel Width (nm):,  11.71,,,,
Exposure (ms):,  0.635,,,,
Digital Resolution:,228,,
Num Repeats:,1,,
PGA Gain:,64,,
Total Measurement Time in sec:,  1.595,,
Wavelength (nm),Absorbance (AU),Reference Signal (unitless),Sample Signal (unitless)
901.370984,-0.609211,22318.000000,90754.000000
905.248306,-0.593674,26694.000000,104734.000000
909.121227,-0.585058,30240.000000,116316.000000
912.989749,-0.566571,35053.000000,129210.000000
918.140932,-0.554383,39668.000000,142175.000000
921.999187,-0.552436,44171.000000,157606.000000
925.853041,-0.542826,49463.000000,172626.000000
929.702495,-0.542820,55176.000000,192562.000000
933.547549,-0.539180,62603.000000,216658.000000
937.388203,-0.531479,70557.000000,239894.000000
941.224457,-0.523704,79215.000000,264552.000000
946.332618,-0.514228,90003.000000,294093.000000
950.158605,-0.512051,97001.000000,315375.000000
953.980191,-0.507379,104340.000000,335606.000000
957.797378,-0.503138,111157.000000,354058.000000
961.610165,-0.501892,117414.000000,372917.000000
965.418551,-0.499659,124361.000000,392955.000000
969.222537,-0.496290,131496.000000,412290.000000
974.287675,-0.492805,140925.000000,438322.000000
978.081394,-0.493431,148023.000000,461063.000000
981.870713,-0.492044,155197.000000,481867.000000
985.655632,-0.492356,162010.000000,503382.000000
989.436151,-0.489555,170019.000000,524871.000000
993.212270,-0.489036,176266.000000,543506.000000
998.240251,-0.486933,184964.000000,567571.000000
1002.006103,-0.486292,190519.000000,583755.000000
1005.767554,-0.483471,196102.000000,596971.000000
1009.524606,-0.483250,200098.000000,608826.000000
1013.277258,-0.481170,204164.000000,618229.000000
1017.025509,-0.480935,206631.000000,625361.000000
1020.769360,-0.479745,209246.000000,631542.000000
1025.754318,-0.477777,211932.000000,636757.000000
1029.487902,-0.476044,213316.000000,638362.000000
1033.217086,-0.475669,213821.000000,639322.000000
1036.941870,-0.475412,213615.000000,638328.000000
1040.662255,-0.474188,213930.000000,637470.000000
1044.378238,-0.472631,213905.000000,635114.000000
1048.089822,-0.473362,213173.000000,634007.000000
1053.031756,-0.472715,211884.000000,629235.000000
1056.733073,-0.471545,211098.000000,625215.000000
1060.429990,-0.471249,209880.000000,621183.000000
1064.122506,-0.471024,209078.000000,618489.000000
1067.810623,-0.469837,208224.000000,614282.000000
1071.494339,-0.470457,206922.000000,611313.000000
1076.399116,-0.469519,206676.000000,609269.000000
1080.072566,-0.469841,206200.000000,608317.000000
1083.741615,-0.469866,205636.000000,606688.000000
1087.406264,-0.468728,205874.000000,605801.000000
1091.066513,-0.467961,205797.000000,604505.000000
1094.722362,-0.469106,205514.000000,605267.000000
1098.373811,-0.469730,205628.000000,606474.000000
1103.235565,-0.466159,206788.000000,604901.000000
1106.876747,-0.467453,206389.000000,605536.000000
1110.513529,-0.466869,206615.000000,605384.000000
1114.145910,-0.467030,206738.000000,605969.000000
1117.773892,-0.468038,206547.000000,606816.000000
1121.397473,-0.467354,207088.000000,607448.000000
1125.016654,-0.467323,206464.000000,605574.000000
1129.835385,-0.466510,207418.000000,607235.000000
1133.444299,-0.466543,207695.000000,608092.000000
1137.048813,-0.464641,208493.000000,607761.000000
1140.648927,-0.465471,208223.000000,608135.000000
1144.244641,-0.464068,208337.000000,606505.000000
1147.835955,-0.463866,208774.000000,607494.000000
1152.617529,-0.463507,208238.000000,605434.000000
1156.198576,-0.463368,208484.000000,605955.000000
1159.775223,-0.461656,208962.000000,604956.000000
1163.347470,-0.460148,209317.000000,603882.000000
1166.915316,-0.459757,209935.000000,605121.000000
1170.478763,-0.457162,211435.000000,605814.000000
1174.037809,-0.454868,213105.000000,607381.000000
1178.776359,-0.452347,214394.000000,607518.000000
1182.325139,-0.446369,217962.000000,609186.000000
1185.869518,-0.443696,220075.000000,611317.000000
1189.409497,-0.440307,222694.000000,613784.000000
1192.945076,-0.438769,224594.000000,616833.000000
1196.476255,-0.437287,226828.000000,620845.000000
1200.003034,-0.435026,229675.000000,625374.000000
1204.698561,-0.434448,232729.000000,632846.000000
1208.215073,-0.432847,235830.000000,638919.000000
1211.727185,-0.432339,238631.000000,645752.000000
1215.234896,-0.431990,241974.000000,654273.000000
1218.738208,-0.430544,245450.000000,661466.000000
1222.237119,-0.430868,248996.000000,671522.000000
1226.895489,-0.430641,254001.000000,684663.000000
1230.384134,-0.430300,257796.000000,694346.000000
1233.868378,-0.431880,261030.000000,705619.000000
1237.348222,-0.432438,264910.000000,717029.000000
1240.823666,-0.433455,269187.000000,730313.000000
1244.294710,-0.432234,274535.000000,742731.000000
1247.761354,-0.432640,278817.000000,755021.000000
1252.376701,-0.434399,285943.000000,777460.000000
1255.833078,-0.434412,292339.000000,794875.000000
1259.285055,-0.434107,298387.000000,810749.000000
1262.732632,-0.434848,303484.000000,826008.000000
1266.175808,-0.435492,308643.000000,841295.000000
1269.614584,-0.435092,313923.000000,854900.000000
1273.048961,-0.434547,319097.000000,867901.000000
1277.621284,-0.436747,324380.000000,886750.000000
1281.045394,-0.435755,329793.000000,899491.000000
1284.465103,-0.437046,333450.000000,912172.000000
1287.880412,-0.437748,337104.000000,923660.000000
1291.291321,-0.439211,340768.000000,936849.000000
1294.697830,-0.438431,344605.000000,945698.000000
1299.232997,-0.438974,349244.000000,959627.000000
1302.629239,-0.438217,352441.000000,966725.000000
1306.021081,-0.438211,355144.000000,974127.000000
1309.408522,-0.438193,357732.000000,981185.000000
1312.791564,-0.437860,360160.000000,987088.000000
1316.170205,-0.437849,362173.000000,992580.000000
1319.544447,-0.437322,364403.000000,997479.000000
1324.036591,-0.437504,366317.000000,1003138.000000
1327.400565,-0.438551,366589.000000,1006307.000000
1330.760139,-0.436480,368623.000000,1007076.000000
1334.115313,-0.437227,368498.000000,1008469.000000
1337.466087,-0.435760,370046.000000,1009290.000000
1340.812461,-0.435003,370709.000000,1009336.000000
1344.154435,-0.433027,371502.000000,1006904.000000
1348.603555,-0.431053,371615.000000,1002642.000000
1351.935262,-0.429397,370997.000000,997166.000000
1355.262569,-0.425964,371791.000000,991432.000000
1358.585475,-0.423619,370879.000000,983675.000000
1361.903982,-0.421056,370539.000000,976989.000000
1365.218088,-0.418411,371657.000000,973988.000000
1369.630052,-0.414468,372397.000000,967107.000000
1372.933891,-0.412887,372524.000000,963920.000000
1376.233331,-0.411088,372314.000000,959394.000000
1379.528370,-0.409390,371243.000000,952901.000000
1382.819009,-0.409112,369231.000000,947132.000000
1386.105248,-0.408182,367705.000000,941200.000000
1389.387087,-0.406617,367073.000000,936202.000000
1393.756027,-0.404053,365715.000000,927248.000000
1397.027599,-0.400895,365152.000000,919112.000000
1400.294771,-0.397730,365097.000000,912301.000000
1403.557542,-0.394044,364333.000000,902699.000000
1406.815914,-0.387520,365413.000000,891875.000000
1410.069885,-0.382259,365734.000000,881911.000000
1413.319456,-0.377540,364947.000000,870503.000000
1417.645373,-0.368474,365539.000000,853901.000000
1420.884678,-0.361663,365230.000000,839904.000000
1424.119582,-0.355351,365533.000000,828471.000000
1427.350086,-0.350230,364906.000000,817355.000000
1430.576190,-0.344639,365583.000000,808398.000000
1433.797894,-0.339950,365648.000000,799858.000000
1437.015198,-0.335885,365698.000000,792516.000000
1441.298091,-0.332278,364890.000000,784223.000000
1444.505128,-0.329369,364741.000000,778671.000000
1447.707765,-0.326809,364393.000000,773356.000000
1450.906001,-0.325591,363044.000000,768335.000000
1454.099838,-0.322877,362635.000000,762687.000000
1457.289274,-0.320726,361653.000000,756864.000000
1461.535011,-0.316660,360303.000000,747013.000000
1464.714180,-0.315542,358064.000000,740461.000000
1467.888950,-0.311963,356949.000000,732098.000000
1471.059319,-0.309080,355912.000000,725142.000000
1474.225288,-0.306664,353737.000000,716711.000000
1477.386857,-0.304775,352477.000000,711059.000000
1480.544025,-0.303983,349693.000000,704158.000000
1484.746739,-0.301613,347943.000000,696820.000000
1487.893641,-0.302471,344781.000000,691853.000000
1491.036142,-0.302820,342531.000000,687891.000000
1494.174244,-0.302277,340170.000000,682297.000000
1497.307945,-0.303035,337701.000000,678527.000000
1500.437247,-0.304788,334446.000000,674705.000000
1503.562148,-0.305147,331876.000000,670074.000000
1507.721838,-0.307510,327918.000000,665695.000000
1510.836473,-0.309586,324967.000000,662865.000000
1513.946707,-0.310854,321718.000000,658157.000000
1517.052541,-0.310455,319073.000000,652146.000000
1520.153975,-0.311669,315575.000000,646803.000000
1523.251008,-0.313320,311252.000000,640372.000000
1527.373542,-0.314227,306492.000000,631897.000000
1530.460309,-0.314831,302471.000000,624475.000000
1533.542676,-0.314408,298873.000000,616445.000000
1536.620642,-0.315144,294593.000000,608648.000000
1539.694209,-0.314864,290524.000000,599854.000000
1542.763375,-0.316214,285805.000000,591948.000000
1545.828141,-0.315604,281854.000000,582946.000000
1549.907652,-0.317060,274841.000000,570350.000000
1552.962151,-0.317960,270515.000000,562537.000000
1556.012250,-0.320040,265203.000000,554138.000000
1559.057949,-0.321867,260042.000000,545646.000000
1562.099248,-0.321025,255973.000000,536067.000000
1565.136147,-0.322226,250523.000000,526106.000000
1568.168646,-0.324296,245616.000000,518266.000000
1572.205133,-0.324148,238774.000000,503657.000000
1575.227365,-0.325100,234179.000000,495049.000000
1578.245196,-0.326496,228934.000000,485519.000000
1581.258628,-0.327779,223478.000000,475350.000000
1584.267659,-0.328314,218239.000000,464779.000000
1587.272290,-0.327519,213357.000000,453551.000000
1591.271621,-0.332512,206678.000000,444433.000000
1594.265985,-0.335286,200655.000000,434246.000000
1597.255949,-0.338229,196105.000000,427285.000000
1600.241513,-0.338104,191413.000000,416942.000000
1603.222677,-0.342364,186271.000000,409741.000000
1606.199441,-0.345621,181567.000000,402400.000000
1609.171805,-0.348225,176656.000000,393870.000000
1613.128112,-0.351963,170106.000000,382545.000000
1616.090209,-0.354949,165195.000000,374064.000000
1619.047905,-0.356576,160661.000000,365163.000000
1622.001202,-0.362737,154762.000000,356781.000000
1624.950098,-0.367671,149284.000000,348084.000000
1627.894595,-0.371725,144304.000000,339628.000000
1630.834691,-0.377305,138573.000000,330357.000000
1634.747975,-0.384830,131373.000000,318666.000000
1637.677804,-0.390914,126061.000000,310095.000000
1640.603233,-0.397896,120043.000000,300077.000000
1643.524262,-0.407405,114222.000000,291847.000000
1646.440891,-0.412342,109595.000000,283226.000000
1649.353120,-0.419927,104146.000000,273886.000000
1653.229247,-0.407240,102337.000000,261380.000000
1656.131209,-0.400668,100118.000000,251872.000000
1659.028770,-0.406306,95076.000000,242313.000000
1661.921932,-0.395698,93881.000000,233494.000000
1664.810693,-0.391237,90392.000000,222519.000000
1667.695055,-0.391147,85969.000000,211587.000000
1670.575016,-0.387318,82225.000000,200596.000000
1674.408120,-0.362907,78925.000000,182021.000000
1677.277814,-inf,0.000000,166368.000000
1680.143108,-inf,0.000000,148509.000000
1683.004002,nan,-2147483648.000000,131726.000000
1685.860496,nan,-2147483648.000000,112737.000000
1688.712590,nan,-2147483648.000000,96470.000000
1691.560283,nan,-2147483648.000000,81482.000000
1695.350364,nan,-2147483648.000000,64845.000000
1698.187790,nan,-2147483648.000000,54099.000000
1701.020817,-inf,0.000000,46192.000000
