Method:,erol,,
Host Date-Time:,7/12/23 @ 13:52:35,,
Header Version:,1,,
System Temp (C):,38.94,,
Detector Temp (C):,23.86,,
Humidity (%):,20.28,,
Lamp PD:,3538,,
Shift Vector Coefficients:,-4.80707,0.053312,-0.000138677,,
Pixel to Wavelength Coefficients:,1763.6,-0.910608,-0.000244451,,
Serial Number:,6110061,,
Scan Config Name:,erol,,
Scan Config Type:,Slew,,
Section 1,,
Start wavelength (nm):,900,,
End wavelength (nm):,1700,,
Pattern Pixel Width (nm):,  11.71,,,,
Exposure (ms):,  0.635,,,,
Digital Resolution:,228,,
Num Repeats:,1,,
PGA Gain:,64,,
Total Measurement Time in sec:,  1.592,,
Wavelength (nm),Absorbance (AU),Reference Signal (unitless),Sample Signal (unitless)
901.370984,-0.737907,22318.000000,122057.000000
905.248306,-0.727148,26694.000000,142417.000000
909.121227,-0.718320,30240.000000,158089.000000
912.989749,-0.693376,35053.000000,173022.000000
918.140932,-0.688000,39668.000000,193393.000000
921.999187,-0.683444,44171.000000,213099.000000
925.853041,-0.677308,49463.000000,235282.000000
929.702495,-0.678950,55176.000000,263451.000000
933.547549,-0.674008,62603.000000,295531.000000
937.388203,-0.667739,70557.000000,328306.000000
941.224457,-0.660810,79215.000000,362758.000000
946.332618,-0.653038,90003.000000,404851.000000
950.158605,-0.649750,97001.000000,433038.000000
953.980191,-0.642746,104340.000000,458350.000000
957.797378,-0.639095,111157.000000,484208.000000
961.610165,-0.638176,117414.000000,510383.000000
965.418551,-0.635217,124361.000000,536910.000000
969.222537,-0.631899,131496.000000,563393.000000
974.287675,-0.629390,140925.000000,600314.000000
978.081394,-0.628196,148023.000000,628818.000000
981.870713,-0.625805,155197.000000,655675.000000
985.655632,-0.625446,162010.000000,683892.000000
989.436151,-0.622140,170019.000000,712258.000000
993.212270,-0.621943,176266.000000,738094.000000
998.240251,-0.619354,184964.000000,769912.000000
1002.006103,-0.618418,190519.000000,791327.000000
1005.767554,-0.615446,196102.000000,808961.000000
1009.524606,-0.615213,200098.000000,825003.000000
1013.277258,-0.612774,204164.000000,837054.000000
1017.025509,-0.612800,206631.000000,847219.000000
1020.769360,-0.611502,209246.000000,855381.000000
1025.754318,-0.608660,211932.000000,860709.000000
1029.487902,-0.607065,213316.000000,863154.000000
1033.217086,-0.606234,213821.000000,863543.000000
1036.941870,-0.606715,213615.000000,863668.000000
1040.662255,-0.606141,213930.000000,863799.000000
1044.378238,-0.604197,213905.000000,859841.000000
1048.089822,-0.603740,213173.000000,855997.000000
1053.031756,-0.603083,211884.000000,849534.000000
1056.733073,-0.602191,211098.000000,844647.000000
1060.429990,-0.601967,209880.000000,839341.000000
1064.122506,-0.600871,209078.000000,834025.000000
1067.810623,-0.600358,208224.000000,829639.000000
1071.494339,-0.601527,206922.000000,826672.000000
1076.399116,-0.600151,206676.000000,823078.000000
1080.072566,-0.599386,206200.000000,819737.000000
1083.741615,-0.600934,205636.000000,820414.000000
1087.406264,-0.599217,205874.000000,818122.000000
1091.066513,-0.598617,205797.000000,816688.000000
1094.722362,-0.599813,205514.000000,817814.000000
1098.373811,-0.599680,205628.000000,818017.000000
1103.235565,-0.598220,206788.000000,819870.000000
1106.876747,-0.598632,206389.000000,819066.000000
1110.513529,-0.598208,206615.000000,819163.000000
1114.145910,-0.598503,206738.000000,820206.000000
1117.773892,-0.599211,206547.000000,820786.000000
1121.397473,-0.598351,207088.000000,821307.000000
1125.016654,-0.600076,206464.000000,822091.000000
1129.835385,-0.597592,207418.000000,821181.000000
1133.444299,-0.598426,207695.000000,823858.000000
1137.048813,-0.596772,208493.000000,823880.000000
1140.648927,-0.596852,208223.000000,822964.000000
1144.244641,-0.596305,208337.000000,822378.000000
1147.835955,-0.594603,208774.000000,820879.000000
1152.617529,-0.595127,208238.000000,819760.000000
1156.198576,-0.594176,208484.000000,818934.000000
1159.775223,-0.592779,208962.000000,818176.000000
1163.347470,-0.591779,209317.000000,817680.000000
1166.915316,-0.590492,209935.000000,817668.000000
1170.478763,-0.587846,211435.000000,818508.000000
1174.037809,-0.584783,213105.000000,819175.000000
1178.776359,-0.582814,214394.000000,820402.000000
1182.325139,-0.576419,217962.000000,821863.000000
1185.869518,-0.573091,220075.000000,823496.000000
1189.409497,-0.570222,222694.000000,827809.000000
1192.945076,-0.567628,224594.000000,829901.000000
1196.476255,-0.566342,226828.000000,835677.000000
1200.003034,-0.563557,229675.000000,840758.000000
1204.698561,-0.562496,232729.000000,849858.000000
1208.215073,-0.561585,235830.000000,859377.000000
1211.727185,-0.560700,238631.000000,867814.000000
1215.234896,-0.558733,241974.000000,875995.000000
1218.738208,-0.558050,245450.000000,887183.000000
1222.237119,-0.557518,248996.000000,898898.000000
1226.895489,-0.557114,254001.000000,916113.000000
1230.384134,-0.557035,257796.000000,929633.000000
1233.868378,-0.558636,261030.000000,944770.000000
1237.348222,-0.559305,264910.000000,960292.000000
1240.823666,-0.559106,269187.000000,975348.000000
1244.294710,-0.558560,274535.000000,993477.000000
1247.761354,-0.559915,278817.000000,1012125.000000
1252.376701,-0.561281,285943.000000,1041264.000000
1255.833078,-0.560566,292339.000000,1062803.000000
1259.285055,-0.560476,298387.000000,1084566.000000
1262.732632,-0.560795,303484.000000,1103903.000000
1266.175808,-0.560754,308643.000000,1122562.000000
1269.614584,-0.561431,313923.000000,1143548.000000
1273.048961,-0.560496,319097.000000,1159894.000000
1277.621284,-0.562409,324380.000000,1184303.000000
1281.045394,-0.561563,329793.000000,1201722.000000
1284.465103,-0.562569,333450.000000,1217867.000000
1287.880412,-0.563649,337104.000000,1234279.000000
1291.291321,-0.564415,340768.000000,1249897.000000
1294.697830,-0.564654,344605.000000,1264664.000000
1299.232997,-0.564781,349244.000000,1282064.000000
1302.629239,-0.564631,352441.000000,1293353.000000
1306.021081,-0.564453,355144.000000,1302740.000000
1309.408522,-0.564209,357732.000000,1311496.000000
1312.791564,-0.564099,360160.000000,1320061.000000
1316.170205,-0.564160,362173.000000,1327628.000000
1319.544447,-0.563634,364403.000000,1334184.000000
1324.036591,-0.563953,366317.000000,1342179.000000
1327.400565,-0.564204,366589.000000,1343950.000000
1330.760139,-0.562098,368623.000000,1344870.000000
1334.115313,-0.562430,368498.000000,1345442.000000
1337.466087,-0.560252,370046.000000,1344336.000000
1340.812461,-0.559417,370709.000000,1344158.000000
1344.154435,-0.557481,371502.000000,1341042.000000
1348.603555,-0.554920,371615.000000,1333563.000000
1351.935262,-0.553196,370997.000000,1326071.000000
1355.262569,-0.548319,371791.000000,1314069.000000
1358.585475,-0.545851,370879.000000,1303417.000000
1361.903982,-0.543113,370539.000000,1294038.000000
1365.218088,-0.538347,371657.000000,1283776.000000
1369.630052,-0.534338,372397.000000,1274513.000000
1372.933891,-0.531786,372524.000000,1267477.000000
1376.233331,-0.530304,372314.000000,1262447.000000
1379.528370,-0.528489,371243.000000,1253567.000000
1382.819009,-0.527954,369231.000000,1245238.000000
1386.105248,-0.526194,367705.000000,1235077.000000
1389.387087,-0.524484,367073.000000,1228108.000000
1393.756027,-0.520820,365715.000000,1213284.000000
1397.027599,-0.517288,365152.000000,1201605.000000
1400.294771,-0.512017,365097.000000,1186930.000000
1403.557542,-0.507807,364333.000000,1173021.000000
1406.815914,-0.500104,365413.000000,1155813.000000
1410.069885,-0.492076,365734.000000,1135642.000000
1413.319456,-0.484611,364947.000000,1113887.000000
1417.645373,-0.471805,365539.000000,1083276.000000
1420.884678,-0.463567,365230.000000,1062021.000000
1424.119582,-0.454585,365533.000000,1041145.000000
1427.350086,-0.447961,364906.000000,1023628.000000
1430.576190,-0.440353,365583.000000,1007717.000000
1433.797894,-0.434803,365648.000000,995099.000000
1437.015198,-0.429006,365698.000000,982039.000000
1441.298091,-0.424464,364890.000000,969674.000000
1444.505128,-0.420567,364741.000000,960620.000000
1447.707765,-0.417390,364393.000000,952708.000000
1450.906001,-0.414503,363044.000000,942892.000000
1454.099838,-0.411354,362635.000000,935026.000000
1457.289274,-0.408282,361653.000000,925922.000000
1461.535011,-0.402882,360303.000000,911066.000000
1464.714180,-0.400315,358064.000000,900068.000000
1467.888950,-0.396932,356949.000000,890303.000000
1471.059319,-0.392074,355912.000000,877842.000000
1474.225288,-0.389966,353737.000000,868254.000000
1477.386857,-0.386687,352477.000000,858653.000000
1480.544025,-0.385679,349693.000000,849896.000000
1484.746739,-0.383065,347943.000000,840569.000000
1487.893641,-0.383597,344781.000000,833951.000000
1491.036142,-0.383576,342531.000000,828469.000000
1494.174244,-0.384226,340170.000000,823991.000000
1497.307945,-0.384992,337701.000000,819454.000000
1500.437247,-0.387576,334446.000000,816399.000000
1503.562148,-0.389139,331876.000000,813046.000000
1507.721838,-0.391967,327918.000000,808597.000000
1510.836473,-0.393721,324967.000000,804563.000000
1513.946707,-0.395682,321718.000000,800124.000000
1517.052541,-0.396327,319073.000000,794726.000000
1520.153975,-0.397862,315575.000000,788795.000000
1523.251008,-0.400718,311252.000000,783123.000000
1527.373542,-0.400366,306492.000000,770523.000000
1530.460309,-0.401055,302471.000000,761621.000000
1533.542676,-0.401084,298873.000000,752611.000000
1536.620642,-0.401465,294593.000000,742485.000000
1539.694209,-0.401321,290524.000000,731986.000000
1542.763375,-0.403073,285805.000000,723008.000000
1545.828141,-0.402416,281854.000000,711935.000000
1549.907652,-0.405461,274841.000000,699105.000000
1552.962151,-0.405432,270515.000000,688056.000000
1556.012250,-0.407662,265203.000000,678017.000000
1559.057949,-0.409021,260042.000000,666906.000000
1562.099248,-0.408849,255973.000000,656210.000000
1565.136147,-0.410124,250523.000000,644127.000000
1568.168646,-0.411140,245616.000000,632989.000000
1572.205133,-0.412717,238774.000000,617595.000000
1575.227365,-0.413730,234179.000000,607125.000000
1578.245196,-0.414629,228934.000000,594756.000000
1581.258628,-0.416676,223478.000000,583325.000000
1584.267659,-0.418202,218239.000000,571656.000000
1587.272290,-0.419431,213357.000000,560451.000000
1591.271621,-0.423170,206678.000000,547601.000000
1594.265985,-0.426976,200655.000000,536322.000000
1597.255949,-0.428756,196105.000000,526314.000000
1600.241513,-0.432144,191413.000000,517744.000000
1603.222677,-0.436229,186271.000000,508598.000000
1606.199441,-0.440229,181567.000000,500341.000000
1609.171805,-0.443455,176656.000000,490437.000000
1613.128112,-0.448527,170106.000000,477800.000000
1616.090209,-0.453006,165195.000000,468816.000000
1619.047905,-0.456555,160661.000000,459690.000000
1622.001202,-0.462365,154762.000000,448776.000000
1624.950098,-0.469133,149284.000000,439690.000000
1627.894595,-0.472856,144304.000000,428681.000000
1630.834691,-0.479429,138573.000000,417934.000000
1634.747975,-0.487731,131373.000000,403866.000000
1637.677804,-0.493465,126061.000000,392686.000000
1640.603233,-0.501069,120043.000000,380545.000000
1643.524262,-0.511727,114222.000000,371088.000000
1646.440891,-0.516619,109595.000000,360089.000000
1649.353120,-0.524997,104146.000000,348851.000000
1653.229247,-0.513156,102337.000000,333571.000000
1656.131209,-0.506927,100118.000000,321691.000000
1659.028770,-0.514983,95076.000000,311210.000000
1661.921932,-0.502103,93881.000000,298319.000000
1664.810693,-0.498537,90392.000000,284883.000000
1667.695055,-0.497692,85969.000000,270417.000000
1670.575016,-0.491822,82225.000000,255168.000000
1674.408120,-0.465583,78925.000000,230567.000000
1677.277814,-inf,0.000000,210360.000000
1680.143108,-inf,0.000000,187066.000000
1683.004002,nan,-2147483648.000000,163752.000000
1685.860496,nan,-2147483648.000000,141591.000000
1688.712590,nan,-2147483648.000000,120521.000000
1691.560283,nan,-2147483648.000000,100363.000000
1695.350364,nan,-2147483648.000000,78081.000000
1698.187790,nan,-2147483648.000000,66112.000000
1701.020817,-inf,0.000000,54443.000000
