Method:,erol,,
Host Date-Time:,7/12/23 @ 13:54:50,,
Header Version:,1,,
System Temp (C):,39.35,,
Detector Temp (C):,24.58,,
Humidity (%):,19.79,,
Lamp PD:,3521,,
Shift Vector Coefficients:,-4.80707,0.053312,-0.000138677,,
Pixel to Wavelength Coefficients:,1763.6,-0.910608,-0.000244451,,
Serial Number:,6110061,,
Scan Config Name:,erol,,
Scan Config Type:,Slew,,
Section 1,,
Start wavelength (nm):,900,,
End wavelength (nm):,1700,,
Pattern Pixel Width (nm):,  11.71,,,,
Exposure (ms):,  0.635,,,,
Digital Resolution:,228,,
Num Repeats:,1,,
PGA Gain:,64,,
Total Measurement Time in sec:,  1.593,,
Wavelength (nm),Absorbance (AU),Reference Signal (unitless),Sample Signal (unitless)
901.370984,-0.729950,22318.000000,119841.000000
905.248306,-0.723261,26694.000000,141148.000000
909.121227,-0.713038,30240.000000,156178.000000
912.989749,-0.685374,35053.000000,169863.000000
918.140932,-0.682411,39668.000000,190920.000000
921.999187,-0.675292,44171.000000,209136.000000
925.853041,-0.669736,49463.000000,231215.000000
929.702495,-0.669474,55176.000000,257765.000000
933.547549,-0.665071,62603.000000,289512.000000
937.388203,-0.660038,70557.000000,322536.000000
941.224457,-0.653594,79215.000000,356781.000000
946.332618,-0.644704,90003.000000,397156.000000
950.158605,-0.640665,97001.000000,424074.000000
953.980191,-0.636293,104340.000000,451590.000000
957.797378,-0.631699,111157.000000,476032.000000
961.610165,-0.630570,117414.000000,501522.000000
965.418551,-0.628209,124361.000000,528315.000000
969.222537,-0.624236,131496.000000,553539.000000
974.287675,-0.621455,140925.000000,589445.000000
978.081394,-0.620354,148023.000000,617566.000000
981.870713,-0.619236,155197.000000,645831.000000
985.655632,-0.617897,162010.000000,672108.000000
989.436151,-0.613851,170019.000000,698793.000000
993.212270,-0.614352,176266.000000,725304.000000
998.240251,-0.612099,184964.000000,757158.000000
1002.006103,-0.610894,190519.000000,777736.000000
1005.767554,-0.607856,196102.000000,794946.000000
1009.524606,-0.607874,200098.000000,811180.000000
1013.277258,-0.604715,204164.000000,821663.000000
1017.025509,-0.605396,206631.000000,832897.000000
1020.769360,-0.603325,209246.000000,839426.000000
1025.754318,-0.601462,211932.000000,846562.000000
1029.487902,-0.599672,213316.000000,848585.000000
1033.217086,-0.598958,213821.000000,849196.000000
1036.941870,-0.599044,213615.000000,848547.000000
1040.662255,-0.597859,213930.000000,847483.000000
1044.378238,-0.596346,213905.000000,844436.000000
1048.089822,-0.596083,213173.000000,841037.000000
1053.031756,-0.595306,211884.000000,834457.000000
1056.733073,-0.594346,211098.000000,829527.000000
1060.429990,-0.594361,209880.000000,824768.000000
1064.122506,-0.593503,209078.000000,819995.000000
1067.810623,-0.592747,208224.000000,815225.000000
1071.494339,-0.593723,206922.000000,811950.000000
1076.399116,-0.592420,206676.000000,808556.000000
1080.072566,-0.592553,206200.000000,806941.000000
1083.741615,-0.592449,205636.000000,804541.000000
1087.406264,-0.591234,205874.000000,803221.000000
1091.066513,-0.590766,205797.000000,802057.000000
1094.722362,-0.591769,205514.000000,802806.000000
1098.373811,-0.592207,205628.000000,804062.000000
1103.235565,-0.589936,206788.000000,804380.000000
1106.876747,-0.591344,206389.000000,805435.000000
1110.513529,-0.590339,206615.000000,804453.000000
1114.145910,-0.591294,206738.000000,806704.000000
1117.773892,-0.591718,206547.000000,806747.000000
1121.397473,-0.590578,207088.000000,806738.000000
1125.016654,-0.592809,206464.000000,808451.000000
1129.835385,-0.590676,207418.000000,808206.000000
1133.444299,-0.590214,207695.000000,808425.000000
1137.048813,-0.589468,208493.000000,810138.000000
1140.648927,-0.589700,208223.000000,809522.000000
1144.244641,-0.588256,208337.000000,807276.000000
1147.835955,-0.587503,208774.000000,807569.000000
1152.617529,-0.587830,208238.000000,806102.000000
1156.198576,-0.586822,208484.000000,805184.000000
1159.775223,-0.585926,208962.000000,805366.000000
1163.347470,-0.584378,209317.000000,803863.000000
1166.915316,-0.583040,209935.000000,803758.000000
1170.478763,-0.579821,211435.000000,803522.000000
1174.037809,-0.577024,213105.000000,804670.000000
1178.776359,-0.575266,214394.000000,806266.000000
1182.325139,-0.567930,217962.000000,805955.000000
1185.869518,-0.565512,220075.000000,809250.000000
1189.409497,-0.560920,222694.000000,810267.000000
1192.945076,-0.559522,224594.000000,814555.000000
1196.476255,-0.557176,226828.000000,818225.000000
1200.003034,-0.555161,229675.000000,824660.000000
1204.698561,-0.554057,232729.000000,833503.000000
1208.215073,-0.552269,235830.000000,841140.000000
1211.727185,-0.551163,238631.000000,848966.000000
1215.234896,-0.550745,241974.000000,860031.000000
1218.738208,-0.549193,245450.000000,869272.000000
1222.237119,-0.548046,248996.000000,879506.000000
1226.895489,-0.548073,254001.000000,897239.000000
1230.384134,-0.548258,257796.000000,911033.000000
1233.868378,-0.549529,261030.000000,925165.000000
1237.348222,-0.550103,264910.000000,940160.000000
1240.823666,-0.550933,269187.000000,957165.000000
1244.294710,-0.550372,274535.000000,974922.000000
1247.761354,-0.551702,278817.000000,993164.000000
1252.376701,-0.552553,285943.000000,1020546.000000
1255.833078,-0.551577,292339.000000,1041032.000000
1259.285055,-0.550792,298387.000000,1060650.000000
1262.732632,-0.552305,303484.000000,1082532.000000
1266.175808,-0.552788,308643.000000,1102159.000000
1269.614584,-0.552739,313923.000000,1120887.000000
1273.048961,-0.552159,319097.000000,1137841.000000
1277.621284,-0.553478,324380.000000,1160199.000000
1281.045394,-0.552916,329793.000000,1178034.000000
1284.465103,-0.554516,333450.000000,1195492.000000
1287.880412,-0.555348,337104.000000,1210911.000000
1291.291321,-0.555786,340768.000000,1225307.000000
1294.697830,-0.555912,344605.000000,1239462.000000
1299.232997,-0.556371,349244.000000,1257477.000000
1302.629239,-0.556463,352441.000000,1269257.000000
1306.021081,-0.556721,355144.000000,1279752.000000
1309.408522,-0.556275,357732.000000,1287754.000000
1312.791564,-0.555899,360160.000000,1295372.000000
1316.170205,-0.556261,362173.000000,1303698.000000
1319.544447,-0.555619,364403.000000,1309789.000000
1324.036591,-0.555357,366317.000000,1315873.000000
1327.400565,-0.556050,366589.000000,1318952.000000
1330.760139,-0.554056,368623.000000,1320195.000000
1334.115313,-0.554377,368498.000000,1320725.000000
1337.466087,-0.552466,370046.000000,1320449.000000
1340.812461,-0.551161,370709.000000,1318845.000000
1344.154435,-0.549154,371502.000000,1315573.000000
1348.603555,-0.546076,371615.000000,1306681.000000
1351.935262,-0.544070,370997.000000,1298496.000000
1355.262569,-0.539900,371791.000000,1288840.000000
1358.585475,-0.536956,370879.000000,1276993.000000
1361.903982,-0.533641,370539.000000,1266121.000000
1365.218088,-0.529188,371657.000000,1256986.000000
1369.630052,-0.524832,372397.000000,1246918.000000
1372.933891,-0.522583,372524.000000,1240901.000000
1376.233331,-0.520233,372314.000000,1233509.000000
1379.528370,-0.519215,371243.000000,1227082.000000
1382.819009,-0.518874,369231.000000,1219472.000000
1386.105248,-0.517190,367705.000000,1209733.000000
1389.387087,-0.514477,367073.000000,1200132.000000
1393.756027,-0.511235,365715.000000,1186802.000000
1397.027599,-0.507284,365152.000000,1174241.000000
1400.294771,-0.502370,365097.000000,1160856.000000
1403.557542,-0.497026,364333.000000,1144260.000000
1406.815914,-0.489263,365413.000000,1127320.000000
1410.069885,-0.480956,365734.000000,1106934.000000
1413.319456,-0.473560,364947.000000,1085900.000000
1417.645373,-0.460599,365539.000000,1055680.000000
1420.884678,-0.451290,365230.000000,1032419.000000
1424.119582,-0.442293,365533.000000,1012092.000000
1427.350086,-0.435476,364906.000000,994619.000000
1430.576190,-0.427264,365583.000000,977799.000000
1433.797894,-0.420813,365648.000000,963555.000000
1437.015198,-0.415448,365698.000000,951854.000000
1441.298091,-0.410518,364890.000000,939032.000000
1444.505128,-0.406611,364741.000000,930241.000000
1447.707765,-0.403395,364393.000000,922497.000000
1450.906001,-0.400619,363044.000000,913225.000000
1454.099838,-0.397130,362635.000000,904898.000000
1457.289274,-0.393095,361653.000000,894102.000000
1461.535011,-0.388558,360303.000000,881508.000000
1464.714180,-0.386277,358064.000000,871441.000000
1467.888950,-0.381705,356949.000000,859630.000000
1471.059319,-0.376633,355912.000000,847180.000000
1474.225288,-0.374439,353737.000000,837760.000000
1477.386857,-0.370487,352477.000000,827214.000000
1480.544025,-0.369579,349693.000000,818967.000000
1484.746739,-0.367623,347943.000000,811206.000000
1487.893641,-0.367226,344781.000000,803100.000000
1491.036142,-0.367073,342531.000000,797577.000000
1494.174244,-0.368051,340170.000000,793866.000000
1497.307945,-0.368355,337701.000000,788655.000000
1500.437247,-0.371464,334446.000000,786665.000000
1503.562148,-0.372924,331876.000000,783249.000000
1507.721838,-0.375655,327918.000000,778789.000000
1510.836473,-0.377562,324967.000000,775178.000000
1513.946707,-0.380230,321718.000000,772156.000000
1517.052541,-0.381010,319073.000000,767185.000000
1520.153975,-0.382546,315575.000000,761463.000000
1523.251008,-0.384777,311252.000000,754900.000000
1527.373542,-0.385154,306492.000000,744001.000000
1530.460309,-0.386199,302471.000000,736008.000000
1533.542676,-0.385246,298873.000000,725659.000000
1536.620642,-0.386179,294593.000000,716805.000000
1539.694209,-0.385330,290524.000000,705525.000000
1542.763375,-0.386185,285805.000000,695432.000000
1545.828141,-0.386963,281854.000000,687048.000000
1549.907652,-0.390018,274841.000000,674682.000000
1552.962151,-0.389447,270515.000000,663190.000000
1556.012250,-0.392379,265203.000000,654572.000000
1559.057949,-0.393184,260042.000000,643025.000000
1562.099248,-0.393742,255973.000000,633777.000000
1565.136147,-0.395622,250523.000000,622973.000000
1568.168646,-0.395799,245616.000000,611020.000000
1572.205133,-0.397925,238774.000000,596914.000000
1575.227365,-0.397629,234179.000000,585029.000000
1578.245196,-0.399517,228934.000000,574417.000000
1581.258628,-0.400652,223478.000000,562195.000000
1584.267659,-0.402789,218239.000000,551723.000000
1587.272290,-0.404067,213357.000000,540971.000000
1591.271621,-0.407229,206678.000000,527866.000000
1594.265985,-0.411762,200655.000000,517859.000000
1597.255949,-0.414178,196105.000000,508940.000000
1600.241513,-0.418050,191413.000000,501212.000000
1603.222677,-0.421415,186271.000000,491542.000000
1606.199441,-0.425322,181567.000000,483458.000000
1609.171805,-0.429167,176656.000000,474565.000000
1613.128112,-0.433920,170106.000000,461997.000000
1616.090209,-0.438177,165195.000000,453079.000000
1619.047905,-0.441737,160661.000000,444270.000000
1622.001202,-0.449212,154762.000000,435388.000000
1624.950098,-0.454804,149284.000000,425419.000000
1627.894595,-0.458339,144304.000000,414589.000000
1630.834691,-0.466308,138573.000000,405496.000000
1634.747975,-0.474462,131373.000000,391713.000000
1637.677804,-0.481485,126061.000000,382002.000000
1640.603233,-0.489716,120043.000000,370726.000000
1643.524262,-0.497838,114222.000000,359408.000000
1646.440891,-0.502687,109595.000000,348721.000000
1649.353120,-0.509955,104146.000000,336975.000000
1653.229247,-0.500871,102337.000000,324268.000000
1656.131209,-0.494771,100118.000000,312812.000000
1659.028770,-0.500104,95076.000000,300729.000000
1661.921932,-0.487979,93881.000000,288773.000000
1664.810693,-0.486253,90392.000000,276938.000000
1667.695055,-0.485520,85969.000000,262943.000000
1670.575016,-0.478794,82225.000000,247627.000000
1674.408120,-0.456557,78925.000000,225825.000000
1677.277814,-inf,0.000000,204215.000000
1680.143108,-inf,0.000000,183267.000000
1683.004002,nan,-2147483648.000000,161078.000000
1685.860496,nan,-2147483648.000000,138455.000000
1688.712590,nan,-2147483648.000000,117516.000000
1691.560283,nan,-2147483648.000000,98387.000000
1695.350364,nan,-2147483648.000000,77607.000000
1698.187790,nan,-2147483648.000000,64839.000000
1701.020817,-inf,0.000000,52383.000000
