Method:,erol,,
Host Date-Time:,7/12/23 @ 13:52:32,,
Header Version:,1,,
System Temp (C):,38.96,,
Detector Temp (C):,24.23,,
Humidity (%):,20.28,,
Lamp PD:,3540,,
Shift Vector Coefficients:,-4.80707,0.053312,-0.000138677,,
Pixel to Wavelength Coefficients:,1763.6,-0.910608,-0.000244451,,
Serial Number:,6110061,,
Scan Config Name:,erol,,
Scan Config Type:,Slew,,
Section 1,,
Start wavelength (nm):,900,,
End wavelength (nm):,1700,,
Pattern Pixel Width (nm):,  11.71,,,,
Exposure (ms):,  0.635,,,,
Digital Resolution:,228,,
Num Repeats:,1,,
PGA Gain:,64,,
Total Measurement Time in sec:,  1.657,,
Wavelength (nm),Absorbance (AU),Reference Signal (unitless),Sample Signal (unitless)
901.370984,-0.740313,22318.000000,122735.000000
905.248306,-0.721911,26694.000000,140710.000000
909.121227,-0.716864,30240.000000,157560.000000
912.989749,-0.692338,35053.000000,172609.000000
918.140932,-0.688846,39668.000000,193770.000000
921.999187,-0.682148,44171.000000,212464.000000
925.853041,-0.674807,49463.000000,233931.000000
929.702495,-0.676723,55176.000000,262104.000000
933.547549,-0.672470,62603.000000,294486.000000
937.388203,-0.666070,70557.000000,327047.000000
941.224457,-0.659414,79215.000000,361594.000000
946.332618,-0.649793,90003.000000,401837.000000
950.158605,-0.646854,97001.000000,430160.000000
953.980191,-0.640999,104340.000000,456509.000000
957.797378,-0.636878,111157.000000,481742.000000
961.610165,-0.634661,117414.000000,506269.000000
965.418551,-0.632425,124361.000000,533469.000000
969.222537,-0.628537,131496.000000,559048.000000
974.287675,-0.626657,140925.000000,596547.000000
978.081394,-0.625643,148023.000000,625133.000000
981.870713,-0.624043,155197.000000,653020.000000
985.655632,-0.623049,162010.000000,680129.000000
989.436151,-0.619424,170019.000000,707817.000000
993.212270,-0.620017,176266.000000,734828.000000
998.240251,-0.616775,184964.000000,765354.000000
1002.006103,-0.615852,190519.000000,786665.000000
1005.767554,-0.613567,196102.000000,805469.000000
1009.524606,-0.612365,200098.000000,819611.000000
1013.277258,-0.610693,204164.000000,833053.000000
1017.025509,-0.610861,206631.000000,843444.000000
1020.769360,-0.608569,209246.000000,849622.000000
1025.754318,-0.606873,211932.000000,857175.000000
1029.487902,-0.605878,213316.000000,860798.000000
1033.217086,-0.605004,213821.000000,861102.000000
1036.941870,-0.605276,213615.000000,860811.000000
1040.662255,-0.603792,213930.000000,859140.000000
1044.378238,-0.602457,213905.000000,856402.000000
1048.089822,-0.602240,213173.000000,853046.000000
1053.031756,-0.601800,211884.000000,847028.000000
1056.733073,-0.601027,211098.000000,842386.000000
1060.429990,-0.600513,209880.000000,836534.000000
1064.122506,-0.600085,209078.000000,832517.000000
1067.810623,-0.599420,208224.000000,827848.000000
1071.494339,-0.600030,206922.000000,823828.000000
1076.399116,-0.598753,206676.000000,820432.000000
1080.072566,-0.599585,206200.000000,820112.000000
1083.741615,-0.600203,205636.000000,819034.000000
1087.406264,-0.599072,205874.000000,817849.000000
1091.066513,-0.598348,205797.000000,816182.000000
1094.722362,-0.599097,205514.000000,816466.000000
1098.373811,-0.599383,205628.000000,817458.000000
1103.235565,-0.597085,206788.000000,817730.000000
1106.876747,-0.598666,206389.000000,819129.000000
1110.513529,-0.598228,206615.000000,819199.000000
1114.145910,-0.598120,206738.000000,819484.000000
1117.773892,-0.598783,206547.000000,819978.000000
1121.397473,-0.598409,207088.000000,821417.000000
1125.016654,-0.600635,206464.000000,823151.000000
1129.835385,-0.598338,207418.000000,822592.000000
1133.444299,-0.598010,207695.000000,823068.000000
1137.048813,-0.595773,208493.000000,821987.000000
1140.648927,-0.596573,208223.000000,822436.000000
1144.244641,-0.595662,208337.000000,821162.000000
1147.835955,-0.594134,208774.000000,819994.000000
1152.617529,-0.594063,208238.000000,817755.000000
1156.198576,-0.592608,208484.000000,815982.000000
1159.775223,-0.590655,208962.000000,814184.000000
1163.347470,-0.589856,209317.000000,814067.000000
1166.915316,-0.589121,209935.000000,815090.000000
1170.478763,-0.585633,211435.000000,814347.000000
1174.037809,-0.582008,213105.000000,813957.000000
1178.776359,-0.580325,214394.000000,815713.000000
1182.325139,-0.572600,217962.000000,814669.000000
1185.869518,-0.570103,220075.000000,817851.000000
1189.409497,-0.565309,222694.000000,818498.000000
1192.945076,-0.563747,224594.000000,822518.000000
1196.476255,-0.561785,226828.000000,826954.000000
1200.003034,-0.558760,229675.000000,831522.000000
1204.698561,-0.557607,232729.000000,840344.000000
1208.215073,-0.554974,235830.000000,846395.000000
1211.727185,-0.554416,238631.000000,855348.000000
1215.234896,-0.553389,241974.000000,865283.000000
1218.738208,-0.552225,245450.000000,875363.000000
1222.237119,-0.552072,248996.000000,887697.000000
1226.895489,-0.551595,254001.000000,904545.000000
1230.384134,-0.551838,257796.000000,918575.000000
1233.868378,-0.553225,261030.000000,933072.000000
1237.348222,-0.554603,264910.000000,949951.000000
1240.823666,-0.555203,269187.000000,966622.000000
1244.294710,-0.554680,274535.000000,984641.000000
1247.761354,-0.555733,278817.000000,1002426.000000
1252.376701,-0.556691,285943.000000,1030316.000000
1255.833078,-0.556276,292339.000000,1052355.000000
1259.285055,-0.556383,298387.000000,1074392.000000
1262.732632,-0.556770,303484.000000,1093720.000000
1266.175808,-0.557502,308643.000000,1114187.000000
1269.614584,-0.557487,313923.000000,1133209.000000
1273.048961,-0.557434,319097.000000,1151746.000000
1277.621284,-0.558908,324380.000000,1174795.000000
1281.045394,-0.558218,329793.000000,1192502.000000
1284.465103,-0.560650,333450.000000,1212498.000000
1287.880412,-0.561003,337104.000000,1226781.000000
1291.291321,-0.562036,340768.000000,1243067.000000
1294.697830,-0.562250,344605.000000,1257685.000000
1299.232997,-0.562815,349244.000000,1276275.000000
1302.629239,-0.562985,352441.000000,1288462.000000
1306.021081,-0.562732,355144.000000,1297586.000000
1309.408522,-0.563077,357732.000000,1308082.000000
1312.791564,-0.562366,360160.000000,1314805.000000
1316.170205,-0.562587,362173.000000,1322827.000000
1319.544447,-0.561868,364403.000000,1328771.000000
1324.036591,-0.561806,366317.000000,1335558.000000
1327.400565,-0.562326,366589.000000,1338152.000000
1330.760139,-0.560146,368623.000000,1338838.000000
1334.115313,-0.560182,368498.000000,1338495.000000
1337.466087,-0.558473,370046.000000,1338841.000000
1340.812461,-0.556676,370709.000000,1335702.000000
1344.154435,-0.554563,371502.000000,1332060.000000
1348.603555,-0.551039,371615.000000,1321699.000000
1351.935262,-0.548844,370997.000000,1312849.000000
1355.262569,-0.543613,371791.000000,1299905.000000
1358.585475,-0.541015,370879.000000,1288982.000000
1361.903982,-0.537006,370539.000000,1275967.000000
1365.218088,-0.531943,371657.000000,1264984.000000
1369.630052,-0.527272,372397.000000,1253944.000000
1372.933891,-0.524732,372524.000000,1247056.000000
1376.233331,-0.522612,372314.000000,1240285.000000
1379.528370,-0.520958,371243.000000,1232017.000000
1382.819009,-0.520391,369231.000000,1223740.000000
1386.105248,-0.518733,367705.000000,1214039.000000
1389.387087,-0.516037,367073.000000,1204453.000000
1393.756027,-0.512261,365715.000000,1189608.000000
1397.027599,-0.508189,365152.000000,1176693.000000
1400.294771,-0.502468,365097.000000,1161118.000000
1403.557542,-0.496945,364333.000000,1144047.000000
1406.815914,-0.488933,365413.000000,1126463.000000
1410.069885,-0.479771,365734.000000,1103916.000000
1413.319456,-0.470855,364947.000000,1079157.000000
1417.645373,-0.457513,365539.000000,1048206.000000
1420.884678,-0.448021,365230.000000,1024679.000000
1424.119582,-0.438774,365533.000000,1003923.000000
1427.350086,-0.431033,364906.000000,984496.000000
1430.576190,-0.423040,365583.000000,968335.000000
1433.797894,-0.416338,365648.000000,953677.000000
1437.015198,-0.410633,365698.000000,941360.000000
1441.298091,-0.405524,364890.000000,928295.000000
1444.505128,-0.401774,364741.000000,919939.000000
1447.707765,-0.397918,364393.000000,910936.000000
1450.906001,-0.395266,363044.000000,902039.000000
1454.099838,-0.391741,362635.000000,893740.000000
1457.289274,-0.388558,361653.000000,884810.000000
1461.535011,-0.383532,360303.000000,871365.000000
1464.714180,-0.380020,358064.000000,858976.000000
1467.888950,-0.375234,356949.000000,846915.000000
1471.059319,-0.371658,355912.000000,837530.000000
1474.225288,-0.368342,353737.000000,826080.000000
1477.386857,-0.364759,352477.000000,816376.000000
1480.544025,-0.364126,349693.000000,808748.000000
1484.746739,-0.361055,347943.000000,799030.000000
1487.893641,-0.361682,344781.000000,792913.000000
1491.036142,-0.361569,342531.000000,787534.000000
1494.174244,-0.361817,340170.000000,782552.000000
1497.307945,-0.363034,337701.000000,779052.000000
1500.437247,-0.365454,334446.000000,775854.000000
1503.562148,-0.366473,331876.000000,771700.000000
1507.721838,-0.369857,327918.000000,768461.000000
1510.836473,-0.371932,324967.000000,765194.000000
1513.946707,-0.374539,321718.000000,762105.000000
1517.052541,-0.375166,319073.000000,756930.000000
1520.153975,-0.376534,315575.000000,750995.000000
1523.251008,-0.378303,311252.000000,743729.000000
1527.373542,-0.378953,306492.000000,733452.000000
1530.460309,-0.379461,302471.000000,724677.000000
1533.542676,-0.379750,298873.000000,716534.000000
1536.620642,-0.379284,294593.000000,705515.000000
1539.694209,-0.379289,290524.000000,695779.000000
1542.763375,-0.380738,285805.000000,686764.000000
1545.828141,-0.380255,281854.000000,676517.000000
1549.907652,-0.382730,274841.000000,663455.000000
1552.962151,-0.384241,270515.000000,655288.000000
1556.012250,-0.386216,265203.000000,645348.000000
1559.057949,-0.387749,260042.000000,635027.000000
1562.099248,-0.387449,255973.000000,624659.000000
1565.136147,-0.388662,250523.000000,613069.000000
1568.168646,-0.389828,245616.000000,602677.000000
1572.205133,-0.391173,238774.000000,587706.000000
1575.227365,-0.391890,234179.000000,577349.000000
1578.245196,-0.393572,228934.000000,566607.000000
1581.258628,-0.394431,223478.000000,554199.000000
1584.267659,-0.396445,218239.000000,543722.000000
1587.272290,-0.397338,213357.000000,532654.000000
1591.271621,-0.400849,206678.000000,520167.000000
1594.265985,-0.405485,200655.000000,510429.000000
1597.255949,-0.408318,196105.000000,502119.000000
1600.241513,-0.411008,191413.000000,493150.000000
1603.222677,-0.416145,186271.000000,485613.000000
1606.199441,-0.419062,181567.000000,476540.000000
1609.171805,-0.424101,176656.000000,469061.000000
1613.128112,-0.430014,170106.000000,457861.000000
1616.090209,-0.435023,165195.000000,449800.000000
1619.047905,-0.438411,160661.000000,440881.000000
1622.001202,-0.445810,154762.000000,431991.000000
1624.950098,-0.449963,149284.000000,420704.000000
1627.894595,-0.454850,144304.000000,411271.000000
1630.834691,-0.463696,138573.000000,403065.000000
1634.747975,-0.470443,131373.000000,388105.000000
1637.677804,-0.477719,126061.000000,378704.000000
1640.603233,-0.488484,120043.000000,369676.000000
1643.524262,-0.498017,114222.000000,359556.000000
1646.440891,-0.501189,109595.000000,347520.000000
1649.353120,-0.511331,104146.000000,338044.000000
1653.229247,-0.498718,102337.000000,322664.000000
1656.131209,-0.495340,100118.000000,313222.000000
1659.028770,-0.501032,95076.000000,301372.000000
1661.921932,-0.489560,93881.000000,289826.000000
1664.810693,-0.484611,90392.000000,275893.000000
1667.695055,-0.486249,85969.000000,263385.000000
1670.575016,-0.480183,82225.000000,248420.000000
1674.408120,-0.455389,78925.000000,225218.000000
1677.277814,-inf,0.000000,203928.000000
1680.143108,-inf,0.000000,182236.000000
1683.004002,nan,-2147483648.000000,158248.000000
1685.860496,nan,-2147483648.000000,137739.000000
1688.712590,nan,-2147483648.000000,116070.000000
1691.560283,nan,-2147483648.000000,97718.000000
1695.350364,nan,-2147483648.000000,78218.000000
1698.187790,nan,-2147483648.000000,64252.000000
1701.020817,-inf,0.000000,53429.000000
