Method:,erol,,
Host Date-Time:,7/12/23 @ 13:53:3,,
Header Version:,1,,
System Temp (C):,39.07,,
Detector Temp (C):,23.41,,
Humidity (%):,20.18,,
Lamp PD:,3564,,
Shift Vector Coefficients:,-4.80707,0.053312,-0.000138677,,
Pixel to Wavelength Coefficients:,1763.6,-0.910608,-0.000244451,,
Serial Number:,6110061,,
Scan Config Name:,erol,,
Scan Config Type:,Slew,,
Section 1,,
Start wavelength (nm):,900,,
End wavelength (nm):,1700,,
Pattern Pixel Width (nm):,  11.71,,,,
Exposure (ms):,  0.635,,,,
Digital Resolution:,228,,
Num Repeats:,1,,
PGA Gain:,64,,
Total Measurement Time in sec:,  1.656,,
Wavelength (nm),Absorbance (AU),Reference Signal (unitless),Sample Signal (unitless)
901.370984,-0.705417,22318.000000,113259.000000
905.248306,-0.695021,26694.000000,132262.000000
909.121227,-0.688499,30240.000000,147598.000000
912.989749,-0.661987,35053.000000,160958.000000
918.140932,-0.655866,39668.000000,179600.000000
921.999187,-0.652689,44171.000000,198530.000000
925.853041,-0.647314,49463.000000,219581.000000
929.702495,-0.644463,55176.000000,243340.000000
933.547549,-0.643481,62603.000000,275471.000000
937.388203,-0.636716,70557.000000,305672.000000
941.224457,-0.631812,79215.000000,339328.000000
946.332618,-0.624144,90003.000000,378792.000000
950.158605,-0.619933,97001.000000,404305.000000
953.980191,-0.614717,104340.000000,429702.000000
957.797378,-0.609912,111157.000000,452740.000000
961.610165,-0.609440,117414.000000,477705.000000
965.418551,-0.606531,124361.000000,502591.000000
969.222537,-0.604089,131496.000000,528447.000000
974.287675,-0.602246,140925.000000,563941.000000
978.081394,-0.600388,148023.000000,589817.000000
981.870713,-0.599899,155197.000000,617707.000000
985.655632,-0.598675,162010.000000,643009.000000
989.436151,-0.595771,170019.000000,670299.000000
993.212270,-0.596248,176266.000000,695691.000000
998.240251,-0.593515,184964.000000,725442.000000
1002.006103,-0.592776,190519.000000,745957.000000
1005.767554,-0.590084,196102.000000,763073.000000
1009.524606,-0.590031,200098.000000,778528.000000
1013.277258,-0.587425,204164.000000,789595.000000
1017.025509,-0.587366,206631.000000,799027.000000
1020.769360,-0.585736,209246.000000,806108.000000
1025.754318,-0.583644,211932.000000,812533.000000
1029.487902,-0.581872,213316.000000,814509.000000
1033.217086,-0.581736,213821.000000,816181.000000
1036.941870,-0.581796,213615.000000,815507.000000
1040.662255,-0.581517,213930.000000,816185.000000
1044.378238,-0.579289,213905.000000,811914.000000
1048.089822,-0.578408,213173.000000,807495.000000
1053.031756,-0.578599,211884.000000,802966.000000
1056.733073,-0.577229,211098.000000,797467.000000
1060.429990,-0.576894,209880.000000,792255.000000
1064.122506,-0.576659,209078.000000,788801.000000
1067.810623,-0.575533,208224.000000,783544.000000
1071.494339,-0.576530,206922.000000,780435.000000
1076.399116,-0.574776,206676.000000,776366.000000
1080.072566,-0.574650,206200.000000,774353.000000
1083.741615,-0.575306,205636.000000,773401.000000
1087.406264,-0.574007,205874.000000,771984.000000
1091.066513,-0.574140,205797.000000,771932.000000
1094.722362,-0.574733,205514.000000,771924.000000
1098.373811,-0.575102,205628.000000,773008.000000
1103.235565,-0.572967,206788.000000,773557.000000
1106.876747,-0.575026,206389.000000,775733.000000
1110.513529,-0.574507,206615.000000,775656.000000
1114.145910,-0.574746,206738.000000,776544.000000
1117.773892,-0.574934,206547.000000,776163.000000
1121.397473,-0.574086,207088.000000,776677.000000
1125.016654,-0.575365,206464.000000,776622.000000
1129.835385,-0.573420,207418.000000,776723.000000
1133.444299,-0.573354,207695.000000,777643.000000
1137.048813,-0.571396,208493.000000,777119.000000
1140.648927,-0.571196,208223.000000,775755.000000
1144.244641,-0.571170,208337.000000,776133.000000
1147.835955,-0.569472,208774.000000,774726.000000
1152.617529,-0.569773,208238.000000,773273.000000
1156.198576,-0.568288,208484.000000,771544.000000
1159.775223,-0.566626,208962.000000,770359.000000
1163.347470,-0.565156,209317.000000,769061.000000
1166.915316,-0.563306,209935.000000,768052.000000
1170.478763,-0.560624,211435.000000,768777.000000
1174.037809,-0.557485,213105.000000,769270.000000
1178.776359,-0.555388,214394.000000,770195.000000
1182.325139,-0.548052,217962.000000,769898.000000
1185.869518,-0.544985,220075.000000,771890.000000
1189.409497,-0.540802,222694.000000,773590.000000
1192.945076,-0.538162,224594.000000,775462.000000
1196.476255,-0.537109,226828.000000,781279.000000
1200.003034,-0.533677,229675.000000,784857.000000
1204.698561,-0.533505,232729.000000,794978.000000
1208.215073,-0.531120,235830.000000,801160.000000
1211.727185,-0.530114,238631.000000,808800.000000
1215.234896,-0.529505,241974.000000,818980.000000
1218.738208,-0.527759,245450.000000,827413.000000
1222.237119,-0.527620,248996.000000,839098.000000
1226.895489,-0.527215,254001.000000,855166.000000
1230.384134,-0.527476,257796.000000,868464.000000
1233.868378,-0.529403,261030.000000,883269.000000
1237.348222,-0.530080,264910.000000,897797.000000
1240.823666,-0.530847,269187.000000,913906.000000
1244.294710,-0.530030,274535.000000,930311.000000
1247.761354,-0.532257,278817.000000,949677.000000
1252.376701,-0.532316,285943.000000,974083.000000
1255.833078,-0.532041,292339.000000,995240.000000
1259.285055,-0.531436,298387.000000,1014416.000000
1262.732632,-0.533045,303484.000000,1035573.000000
1266.175808,-0.532580,308643.000000,1052049.000000
1269.614584,-0.533038,313923.000000,1071176.000000
1273.048961,-0.532718,319097.000000,1088030.000000
1277.621284,-0.534807,324380.000000,1111376.000000
1281.045394,-0.533627,329793.000000,1126857.000000
1284.465103,-0.535469,333450.000000,1144194.000000
1287.880412,-0.536055,337104.000000,1158294.000000
1291.291321,-0.537064,340768.000000,1173608.000000
1294.697830,-0.537378,344605.000000,1187679.000000
1299.232997,-0.537613,349244.000000,1204320.000000
1302.629239,-0.538541,352441.000000,1217945.000000
1306.021081,-0.538125,355144.000000,1226109.000000
1309.408522,-0.537928,357732.000000,1234485.000000
1312.791564,-0.537290,360160.000000,1241040.000000
1316.170205,-0.537705,362173.000000,1249168.000000
1319.544447,-0.537297,364403.000000,1255681.000000
1324.036591,-0.536812,366317.000000,1260867.000000
1327.400565,-0.537119,366589.000000,1262694.000000
1330.760139,-0.535457,368623.000000,1264850.000000
1334.115313,-0.535927,368498.000000,1265792.000000
1337.466087,-0.533490,370046.000000,1263997.000000
1340.812461,-0.532393,370709.000000,1263066.000000
1344.154435,-0.530351,371502.000000,1259830.000000
1348.603555,-0.527454,371615.000000,1251834.000000
1351.935262,-0.524904,370997.000000,1242438.000000
1355.262569,-0.520526,371791.000000,1232608.000000
1358.585475,-0.517528,370879.000000,1221124.000000
1361.903982,-0.514373,370539.000000,1211176.000000
1365.218088,-0.509379,371657.000000,1200939.000000
1369.630052,-0.505892,372397.000000,1193708.000000
1372.933891,-0.502440,372524.000000,1184662.000000
1376.233331,-0.501395,372314.000000,1181148.000000
1379.528370,-0.499538,371243.000000,1172725.000000
1382.819009,-0.498354,369231.000000,1163194.000000
1386.105248,-0.497749,367705.000000,1156773.000000
1389.387087,-0.494880,367073.000000,1147183.000000
1393.756027,-0.490977,365715.000000,1132712.000000
1397.027599,-0.487530,365152.000000,1122029.000000
1400.294771,-0.482077,365097.000000,1107860.000000
1403.557542,-0.476995,364333.000000,1092682.000000
1406.815914,-0.468828,365413.000000,1075505.000000
1410.069885,-0.460141,365734.000000,1055131.000000
1413.319456,-0.452290,364947.000000,1033998.000000
1417.645373,-0.438803,365539.000000,1004007.000000
1420.884678,-0.429367,365230.000000,981598.000000
1424.119582,-0.420519,365533.000000,962600.000000
1427.350086,-0.413517,364906.000000,945579.000000
1430.576190,-0.405145,365583.000000,929246.000000
1433.797894,-0.399106,365648.000000,916578.000000
1437.015198,-0.393708,365698.000000,905380.000000
1441.298091,-0.388135,364890.000000,891861.000000
1444.505128,-0.385068,364741.000000,885222.000000
1447.707765,-0.381056,364393.000000,876246.000000
1450.906001,-0.378622,363044.000000,868124.000000
1454.099838,-0.374879,362635.000000,859703.000000
1457.289274,-0.371383,361653.000000,850502.000000
1461.535011,-0.366406,360303.000000,837671.000000
1464.714180,-0.364026,358064.000000,827917.000000
1467.888950,-0.359793,356949.000000,817333.000000
1471.059319,-0.355082,355912.000000,806167.000000
1474.225288,-0.352313,353737.000000,796147.000000
1477.386857,-0.349134,352477.000000,787525.000000
1480.544025,-0.348188,349693.000000,779605.000000
1484.746739,-0.345338,347943.000000,770631.000000
1487.893641,-0.346172,344781.000000,765095.000000
1491.036142,-0.345769,342531.000000,759397.000000
1494.174244,-0.345956,340170.000000,754488.000000
1497.307945,-0.347585,337701.000000,751826.000000
1500.437247,-0.348758,334446.000000,746593.000000
1503.562148,-0.350340,331876.000000,743560.000000
1507.721838,-0.354040,327918.000000,740978.000000
1510.836473,-0.356377,324967.000000,738272.000000
1513.946707,-0.358503,321718.000000,734478.000000
1517.052541,-0.359307,319073.000000,729789.000000
1520.153975,-0.361636,315575.000000,725669.000000
1523.251008,-0.363040,311252.000000,718045.000000
1527.373542,-0.364145,306492.000000,708866.000000
1530.460309,-0.363644,302471.000000,698759.000000
1533.542676,-0.364764,298873.000000,692230.000000
1536.620642,-0.364950,294593.000000,682610.000000
1539.694209,-0.365135,290524.000000,673468.000000
1542.763375,-0.365865,285805.000000,663644.000000
1545.828141,-0.366898,281854.000000,656028.000000
1549.907652,-0.370021,274841.000000,644322.000000
1552.962151,-0.369803,270515.000000,633862.000000
1556.012250,-0.372179,265203.000000,624824.000000
1559.057949,-0.374747,260042.000000,616298.000000
1562.099248,-0.375262,255973.000000,607374.000000
1565.136147,-0.376708,250523.000000,596424.000000
1568.168646,-0.378106,245616.000000,586628.000000
1572.205133,-0.379666,238774.000000,572339.000000
1575.227365,-0.379862,234179.000000,561578.000000
1578.245196,-0.381310,228934.000000,550833.000000
1581.258628,-0.383832,223478.000000,540838.000000
1584.267659,-0.384779,218239.000000,529311.000000
1587.272290,-0.387552,213357.000000,520785.000000
1591.271621,-0.391051,206678.000000,508563.000000
1594.265985,-0.396239,200655.000000,499677.000000
1597.255949,-0.398489,196105.000000,490883.000000
1600.241513,-0.401056,191413.000000,481978.000000
1603.222677,-0.406233,186271.000000,474655.000000
1606.199441,-0.409910,181567.000000,466602.000000
1609.171805,-0.415077,176656.000000,459415.000000
1613.128112,-0.419651,170106.000000,447065.000000
1616.090209,-0.425065,165195.000000,439604.000000
1619.047905,-0.425581,160661.000000,428047.000000
1622.001202,-0.434455,154762.000000,420842.000000
1624.950098,-0.439892,149284.000000,411060.000000
1627.894595,-0.444619,144304.000000,401696.000000
1630.834691,-0.451764,138573.000000,392141.000000
1634.747975,-0.460343,131373.000000,379183.000000
1637.677804,-0.466656,126061.000000,369179.000000
1640.603233,-0.476682,120043.000000,359765.000000
1643.524262,-0.484960,114222.000000,348907.000000
1646.440891,-0.490650,109595.000000,339188.000000
1649.353120,-0.498217,104146.000000,327989.000000
1653.229247,-0.486436,102337.000000,313667.000000
1656.131209,-0.481435,100118.000000,303352.000000
1659.028770,-0.489403,95076.000000,293409.000000
1661.921932,-0.477662,93881.000000,281994.000000
1664.810693,-0.473244,90392.000000,268766.000000
1667.695055,-0.471858,85969.000000,254800.000000
1670.575016,-0.466301,82225.000000,240605.000000
1674.408120,-0.439583,78925.000000,217169.000000
1677.277814,-inf,0.000000,199241.000000
1680.143108,-inf,0.000000,177359.000000
1683.004002,nan,-2147483648.000000,155526.000000
1685.860496,nan,-2147483648.000000,133473.000000
1688.712590,nan,-2147483648.000000,113226.000000
1691.560283,nan,-2147483648.000000,94421.000000
1695.350364,nan,-2147483648.000000,74837.000000
1698.187790,nan,-2147483648.000000,62392.000000
1701.020817,-inf,0.000000,52165.000000
