Method:,erol,,
Host Date-Time:,7/12/23 @ 13:54:30,,
Header Version:,1,,
System Temp (C):,39.25,,
Detector Temp (C):,24.68,,
Humidity (%):,19.89,,
Lamp PD:,3513,,
Shift Vector Coefficients:,-4.80707,0.053312,-0.000138677,,
Pixel to Wavelength Coefficients:,1763.6,-0.910608,-0.000244451,,
Serial Number:,6110061,,
Scan Config Name:,erol,,
Scan Config Type:,Slew,,
Section 1,,
Start wavelength (nm):,900,,
End wavelength (nm):,1700,,
Pattern Pixel Width (nm):,  11.71,,,,
Exposure (ms):,  0.635,,,,
Digital Resolution:,228,,
Num Repeats:,1,,
PGA Gain:,64,,
Total Measurement Time in sec:,  1.594,,
Wavelength (nm),Absorbance (AU),Reference Signal (unitless),Sample Signal (unitless)
901.370984,-0.665895,22318.000000,103407.000000
905.248306,-0.653682,26694.000000,120253.000000
909.121227,-0.644981,30240.000000,133525.000000
912.989749,-0.619934,35053.000000,146103.000000
918.140932,-0.614557,39668.000000,163304.000000
921.999187,-0.606170,44171.000000,178364.000000
925.853041,-0.603198,49463.000000,198371.000000
929.702495,-0.601414,55176.000000,220376.000000
933.547549,-0.594972,62603.000000,246358.000000
937.388203,-0.588984,70557.000000,273857.000000
941.224457,-0.579756,79215.000000,300998.000000
946.332618,-0.570955,90003.000000,335129.000000
950.158605,-0.566643,97001.000000,357618.000000
953.980191,-0.559328,104340.000000,378250.000000
957.797378,-0.553945,111157.000000,397999.000000
961.610165,-0.550220,117414.000000,416812.000000
965.418551,-0.546963,124361.000000,438175.000000
969.222537,-0.542172,131496.000000,458231.000000
974.287675,-0.538332,140925.000000,486766.000000
978.081394,-0.535545,148023.000000,508012.000000
981.870713,-0.533276,155197.000000,529858.000000
985.655632,-0.532345,162010.000000,551934.000000
989.436151,-0.526641,170019.000000,571661.000000
993.212270,-0.525878,176266.000000,591625.000000
998.240251,-0.522069,184964.000000,615398.000000
1002.006103,-0.519993,190519.000000,630857.000000
1005.767554,-0.516361,196102.000000,643937.000000
1009.524606,-0.515185,200098.000000,655282.000000
1013.277258,-0.512928,204164.000000,665131.000000
1017.025509,-0.513423,206631.000000,673935.000000
1020.769360,-0.510441,209246.000000,677795.000000
1025.754318,-0.508338,211932.000000,683179.000000
1029.487902,-0.506721,213316.000000,685085.000000
1033.217086,-0.506312,213821.000000,686061.000000
1036.941870,-0.505839,213615.000000,684653.000000
1040.662255,-0.505453,213930.000000,685054.000000
1044.378238,-0.502384,213905.000000,680150.000000
1048.089822,-0.502928,213173.000000,678673.000000
1053.031756,-0.502993,211884.000000,674670.000000
1056.733073,-0.501366,211098.000000,669654.000000
1060.429990,-0.500920,209880.000000,665106.000000
1064.122506,-0.501228,209078.000000,663035.000000
1067.810623,-0.500710,208224.000000,659539.000000
1071.494339,-0.501572,206922.000000,656717.000000
1076.399116,-0.500274,206676.000000,653979.000000
1080.072566,-0.500153,206200.000000,652292.000000
1083.741615,-0.500462,205636.000000,650971.000000
1087.406264,-0.499685,205874.000000,650558.000000
1091.066513,-0.498810,205797.000000,649006.000000
1094.722362,-0.500026,205514.000000,649931.000000
1098.373811,-0.501164,205628.000000,651998.000000
1103.235565,-0.498548,206788.000000,651738.000000
1106.876747,-0.499217,206389.000000,651483.000000
1110.513529,-0.499251,206615.000000,652248.000000
1114.145910,-0.498454,206738.000000,651440.000000
1117.773892,-0.499713,206547.000000,652728.000000
1121.397473,-0.498631,207088.000000,652809.000000
1125.016654,-0.499421,206464.000000,652027.000000
1129.835385,-0.498075,207418.000000,653013.000000
1133.444299,-0.498745,207695.000000,654894.000000
1137.048813,-0.496753,208493.000000,654402.000000
1140.648927,-0.498327,208223.000000,655928.000000
1144.244641,-0.498463,208337.000000,656492.000000
1147.835955,-0.498630,208774.000000,658122.000000
1152.617529,-0.500395,208238.000000,659105.000000
1156.198576,-0.499589,208484.000000,658661.000000
1159.775223,-0.498742,208962.000000,658885.000000
1163.347470,-0.499114,209317.000000,660570.000000
1166.915316,-0.498358,209935.000000,661367.000000
1170.478763,-0.496280,211435.000000,662913.000000
1174.037809,-0.494979,213105.000000,666151.000000
1178.776359,-0.494841,214394.000000,669968.000000
1182.325139,-0.488652,217962.000000,671480.000000
1185.869518,-0.487714,220075.000000,676527.000000
1189.409497,-0.485032,222694.000000,680363.000000
1192.945076,-0.485077,224594.000000,686238.000000
1196.476255,-0.483854,226828.000000,691116.000000
1200.003034,-0.482393,229675.000000,697439.000000
1204.698561,-0.482043,232729.000000,706145.000000
1208.215073,-0.481464,235830.000000,714600.000000
1211.727185,-0.481662,238631.000000,723417.000000
1215.234896,-0.480432,241974.000000,731477.000000
1218.738208,-0.479536,245450.000000,740455.000000
1222.237119,-0.478935,248996.000000,750114.000000
1226.895489,-0.478430,254001.000000,764303.000000
1230.384134,-0.477674,257796.000000,774373.000000
1233.868378,-0.478983,261030.000000,786455.000000
1237.348222,-0.478864,264910.000000,797926.000000
1240.823666,-0.478812,269187.000000,810711.000000
1244.294710,-0.477671,274535.000000,824649.000000
1247.761354,-0.478573,278817.000000,839252.000000
1252.376701,-0.478646,285943.000000,860846.000000
1255.833078,-0.477448,292339.000000,877677.000000
1259.285055,-0.476413,298387.000000,893703.000000
1262.732632,-0.477453,303484.000000,911147.000000
1266.175808,-0.476972,308643.000000,925610.000000
1269.614584,-0.477019,313923.000000,941547.000000
1273.048961,-0.476526,319097.000000,955980.000000
1277.621284,-0.477925,324380.000000,974943.000000
1281.045394,-0.476104,329793.000000,987064.000000
1284.465103,-0.477390,333450.000000,1000970.000000
1287.880412,-0.477443,337104.000000,1012061.000000
1291.291321,-0.478114,340768.000000,1024644.000000
1294.697830,-0.477667,344605.000000,1035114.000000
1299.232997,-0.477724,349244.000000,1049186.000000
1302.629239,-0.477513,352441.000000,1058278.000000
1306.021081,-0.477863,355144.000000,1067254.000000
1309.408522,-0.477293,357732.000000,1073621.000000
1312.791564,-0.477037,360160.000000,1080270.000000
1316.170205,-0.477329,362173.000000,1087038.000000
1319.544447,-0.477295,364403.000000,1093646.000000
1324.036591,-0.477202,366317.000000,1099156.000000
1327.400565,-0.478163,366589.000000,1102409.000000
1330.760139,-0.476552,368623.000000,1104420.000000
1334.115313,-0.477539,368498.000000,1106558.000000
1337.466087,-0.475932,370046.000000,1107103.000000
1340.812461,-0.475730,370709.000000,1108569.000000
1344.154435,-0.474499,371502.000000,1107798.000000
1348.603555,-0.472487,371615.000000,1103011.000000
1351.935262,-0.471266,370997.000000,1098085.000000
1355.262569,-0.468442,371791.000000,1093304.000000
1358.585475,-0.467009,370879.000000,1087029.000000
1361.903982,-0.464874,370539.000000,1080706.000000
1365.218088,-0.462127,371657.000000,1077132.000000
1369.630052,-0.458903,372397.000000,1071295.000000
1372.933891,-0.457456,372524.000000,1068095.000000
1376.233331,-0.456188,372314.000000,1064382.000000
1379.528370,-0.455445,371243.000000,1059506.000000
1382.819009,-0.454982,369231.000000,1052641.000000
1386.105248,-0.453500,367705.000000,1044718.000000
1389.387087,-0.452007,367073.000000,1039344.000000
1393.756027,-0.448909,365715.000000,1028140.000000
1397.027599,-0.445889,365152.000000,1019443.000000
1400.294771,-0.442670,365097.000000,1011761.000000
1403.557542,-0.439770,364333.000000,1002926.000000
1406.815914,-0.433918,365413.000000,992434.000000
1410.069885,-0.428385,365734.000000,980732.000000
1413.319456,-0.423754,364947.000000,968242.000000
1417.645373,-0.415443,365539.000000,951429.000000
1420.884678,-0.409585,365230.000000,937888.000000
1424.119582,-0.404081,365533.000000,926845.000000
1427.350086,-0.398947,364906.000000,914383.000000
1430.576190,-0.394332,365583.000000,906397.000000
1433.797894,-0.389567,365648.000000,896665.000000
1437.015198,-0.385822,365698.000000,889087.000000
1441.298091,-0.382425,364890.000000,880212.000000
1444.505128,-0.379791,364741.000000,874532.000000
1447.707765,-0.376848,364393.000000,867797.000000
1450.906001,-0.375059,363044.000000,861029.000000
1454.099838,-0.372691,362635.000000,855383.000000
1457.289274,-0.370588,361653.000000,848946.000000
1461.535011,-0.367273,360303.000000,839345.000000
1464.714180,-0.364931,358064.000000,829643.000000
1467.888950,-0.362607,356949.000000,822646.000000
1471.059319,-0.359795,355912.000000,814963.000000
1474.225288,-0.359406,353737.000000,809257.000000
1477.386857,-0.357150,352477.000000,802197.000000
1480.544025,-0.358233,349693.000000,797848.000000
1484.746739,-0.356862,347943.000000,791352.000000
1487.893641,-0.358462,344781.000000,787056.000000
1491.036142,-0.358342,342531.000000,781704.000000
1494.174244,-0.359137,340170.000000,777737.000000
1497.307945,-0.360248,337701.000000,774070.000000
1500.437247,-0.361568,334446.000000,768943.000000
1503.562148,-0.362957,331876.000000,765478.000000
1507.721838,-0.365649,327918.000000,761052.000000
1510.836473,-0.367139,324967.000000,756795.000000
1513.946707,-0.369518,321718.000000,753344.000000
1517.052541,-0.369663,319073.000000,747400.000000
1520.153975,-0.370387,315575.000000,740439.000000
1523.251008,-0.372399,311252.000000,733687.000000
1527.373542,-0.372921,306492.000000,723336.000000
1530.460309,-0.373077,302471.000000,714102.000000
1533.542676,-0.373399,298873.000000,706132.000000
1536.620642,-0.373237,294593.000000,695760.000000
1539.694209,-0.372775,290524.000000,685421.000000
1542.763375,-0.372384,285805.000000,673680.000000
1545.828141,-0.371109,281854.000000,662420.000000
1549.907652,-0.372295,274841.000000,647704.000000
1552.962151,-0.371916,270515.000000,636953.000000
1556.012250,-0.371992,265203.000000,624554.000000
1559.057949,-0.372375,260042.000000,612941.000000
1562.099248,-0.370149,255973.000000,600265.000000
1565.136147,-0.370076,250523.000000,587386.000000
1568.168646,-0.369175,245616.000000,574688.000000
1572.205133,-0.369326,238774.000000,558873.000000
1575.227365,-0.367532,234179.000000,545858.000000
1578.245196,-0.368460,228934.000000,534774.000000
1581.258628,-0.369055,223478.000000,522745.000000
1584.267659,-0.369273,218239.000000,510747.000000
1587.272290,-0.369169,213357.000000,499202.000000
1591.271621,-0.369936,206678.000000,484429.000000
1594.265985,-0.370893,200655.000000,471349.000000
1597.255949,-0.372677,196105.000000,462557.000000
1600.241513,-0.371191,191413.000000,449948.000000
1603.222677,-0.373042,186271.000000,439731.000000
1606.199441,-0.373235,181567.000000,428817.000000
1609.171805,-0.374496,176656.000000,418432.000000
1613.128112,-0.375119,170106.000000,403495.000000
1616.090209,-0.374887,165195.000000,391637.000000
1619.047905,-0.376381,160661.000000,382201.000000
1622.001202,-0.380827,154762.000000,371956.000000
1624.950098,-0.381989,149284.000000,359751.000000
1627.894595,-0.384021,144304.000000,349381.000000
1630.834691,-0.388666,138573.000000,339113.000000
1634.747975,-0.393468,131373.000000,325068.000000
1637.677804,-0.395159,126061.000000,313141.000000
1640.603233,-0.402129,120043.000000,303016.000000
1643.524262,-0.406863,114222.000000,291483.000000
1646.440891,-0.408007,109595.000000,280413.000000
1649.353120,-0.413395,104146.000000,269797.000000
1653.229247,-0.396639,102337.000000,255077.000000
1656.131209,-0.388083,100118.000000,244678.000000
1659.028770,-0.391232,95076.000000,234047.000000
1661.921932,-0.380536,93881.000000,225483.000000
1664.810693,-0.375538,90392.000000,214619.000000
1667.695055,-0.376067,85969.000000,204366.000000
1670.575016,-0.367475,82225.000000,191637.000000
1674.408120,-0.343642,78925.000000,174123.000000
1677.277814,-inf,0.000000,159814.000000
1680.143108,-inf,0.000000,142729.000000
1683.004002,nan,-2147483648.000000,125497.000000
1685.860496,nan,-2147483648.000000,107619.000000
1688.712590,nan,-2147483648.000000,92318.000000
1691.560283,nan,-2147483648.000000,76267.000000
1695.350364,nan,-2147483648.000000,60744.000000
1698.187790,nan,-2147483648.000000,49339.000000
1701.020817,-inf,0.000000,42952.000000
