Method:,erol,,
Host Date-Time:,7/12/23 @ 13:51:3,,
Header Version:,1,,
System Temp (C):,38.59,,
Detector Temp (C):,25.11,,
Humidity (%):,20.65,,
Lamp PD:,3547,,
Shift Vector Coefficients:,-4.80707,0.053312,-0.000138677,,
Pixel to Wavelength Coefficients:,1763.6,-0.910608,-0.000244451,,
Serial Number:,6110061,,
Scan Config Name:,erol,,
Scan Config Type:,Slew,,
Section 1,,
Start wavelength (nm):,900,,
End wavelength (nm):,1700,,
Pattern Pixel Width (nm):,  11.71,,,,
Exposure (ms):,  0.635,,,,
Digital Resolution:,228,,
Num Repeats:,1,,
PGA Gain:,64,,
Total Measurement Time in sec:,  1.643,,
Wavelength (nm),Absorbance (AU),Reference Signal (unitless),Sample Signal (unitless)
901.370984,-0.679269,22318.000000,106641.000000
905.248306,-0.666461,26694.000000,123844.000000
909.121227,-0.659628,30240.000000,138105.000000
912.989749,-0.632670,35053.000000,150451.000000
918.140932,-0.630645,39668.000000,169467.000000
921.999187,-0.621826,44171.000000,184911.000000
925.853041,-0.616691,49463.000000,204631.000000
929.702495,-0.619477,55176.000000,229735.000000
933.547549,-0.613769,62603.000000,257255.000000
937.388203,-0.609808,70557.000000,287308.000000
941.224457,-0.601931,79215.000000,316766.000000
946.332618,-0.594480,90003.000000,353783.000000
950.158605,-0.591950,97001.000000,379076.000000
953.980191,-0.586234,104340.000000,402425.000000
957.797378,-0.583903,111157.000000,426422.000000
961.610165,-0.581049,117414.000000,447475.000000
965.418551,-0.579052,124361.000000,471776.000000
969.222537,-0.575359,131496.000000,494620.000000
974.287675,-0.572739,140925.000000,526898.000000
978.081394,-0.572886,148023.000000,553624.000000
981.870713,-0.571455,155197.000000,578547.000000
985.655632,-0.570276,162010.000000,602307.000000
989.436151,-0.566091,170019.000000,626021.000000
993.212270,-0.566449,176266.000000,649557.000000
998.240251,-0.564029,184964.000000,677823.000000
1002.006103,-0.562451,190519.000000,695647.000000
1005.767554,-0.560701,196102.000000,713153.000000
1009.524606,-0.558441,200098.000000,723909.000000
1013.277258,-0.556403,204164.000000,735161.000000
1017.025509,-0.556255,206631.000000,743790.000000
1020.769360,-0.554753,209246.000000,750602.000000
1025.754318,-0.552580,211932.000000,756443.000000
1029.487902,-0.551304,213316.000000,759150.000000
1033.217086,-0.550206,213821.000000,759026.000000
1036.941870,-0.550374,213615.000000,758588.000000
1040.662255,-0.549379,213930.000000,757967.000000
1044.378238,-0.547232,213905.000000,754142.000000
1048.089822,-0.547236,213173.000000,751568.000000
1053.031756,-0.546641,211884.000000,746001.000000
1056.733073,-0.545393,211098.000000,741101.000000
1060.429990,-0.544494,209880.000000,735300.000000
1064.122506,-0.543902,209078.000000,731493.000000
1067.810623,-0.544070,208224.000000,728787.000000
1071.494339,-0.544754,206922.000000,725371.000000
1076.399116,-0.543489,206676.000000,722403.000000
1080.072566,-0.543972,206200.000000,721540.000000
1083.741615,-0.543868,205636.000000,719394.000000
1087.406264,-0.542552,205874.000000,718048.000000
1091.066513,-0.541829,205797.000000,716586.000000
1094.722362,-0.543335,205514.000000,718086.000000
1098.373811,-0.543310,205628.000000,718443.000000
1103.235565,-0.541534,206788.000000,719548.000000
1106.876747,-0.542655,206389.000000,720015.000000
1110.513529,-0.541737,206615.000000,719281.000000
1114.145910,-0.542229,206738.000000,720526.000000
1117.773892,-0.542823,206547.000000,720845.000000
1121.397473,-0.542120,207088.000000,721564.000000
1125.016654,-0.543641,206464.000000,721913.000000
1129.835385,-0.541538,207418.000000,721746.000000
1133.444299,-0.540600,207695.000000,721151.000000
1137.048813,-0.539562,208493.000000,722193.000000
1140.648927,-0.539467,208223.000000,721101.000000
1144.244641,-0.539623,208337.000000,721754.000000
1147.835955,-0.537756,208774.000000,720166.000000
1152.617529,-0.538390,208238.000000,719366.000000
1156.198576,-0.536452,208484.000000,717010.000000
1159.775223,-0.535420,208962.000000,716948.000000
1163.347470,-0.534258,209317.000000,716247.000000
1166.915316,-0.532683,209935.000000,715761.000000
1170.478763,-0.530640,211435.000000,717492.000000
1174.037809,-0.527462,213105.000000,717886.000000
1178.776359,-0.525362,214394.000000,718744.000000
1182.325139,-0.518716,217962.000000,719609.000000
1185.869518,-0.515749,220075.000000,721638.000000
1189.409497,-0.511945,222694.000000,723858.000000
1192.945076,-0.510190,224594.000000,727090.000000
1196.476255,-0.508261,226828.000000,731068.000000
1200.003034,-0.506014,229675.000000,736424.000000
1204.698561,-0.505613,232729.000000,745527.000000
1208.215073,-0.503694,235830.000000,752131.000000
1211.727185,-0.502808,238631.000000,759513.000000
1215.234896,-0.501875,241974.000000,768500.000000
1218.738208,-0.500991,245450.000000,777955.000000
1222.237119,-0.500400,248996.000000,788120.000000
1226.895489,-0.500321,254001.000000,803815.000000
1230.384134,-0.500464,257796.000000,816094.000000
1233.868378,-0.501395,261030.000000,828105.000000
1237.348222,-0.502491,264910.000000,842538.000000
1240.823666,-0.502483,269187.000000,856124.000000
1244.294710,-0.501662,274535.000000,871484.000000
1247.761354,-0.503174,278817.000000,888164.000000
1252.376701,-0.503265,285943.000000,911055.000000
1255.833078,-0.502815,292339.000000,930468.000000
1259.285055,-0.502523,298387.000000,949081.000000
1262.732632,-0.503630,303484.000000,967755.000000
1266.175808,-0.503355,308643.000000,983583.000000
1269.614584,-0.503464,313923.000000,1000662.000000
1273.048961,-0.503134,319097.000000,1016381.000000
1277.621284,-0.504901,324380.000000,1037421.000000
1281.045394,-0.504124,329793.000000,1052848.000000
1284.465103,-0.505298,333450.000000,1067403.000000
1287.880412,-0.506212,337104.000000,1081375.000000
1291.291321,-0.506687,340768.000000,1094323.000000
1294.697830,-0.507029,344605.000000,1107518.000000
1299.232997,-0.507318,349244.000000,1123174.000000
1302.629239,-0.507245,352441.000000,1133264.000000
1306.021081,-0.507126,355144.000000,1141644.000000
1309.408522,-0.507039,357732.000000,1149732.000000
1312.791564,-0.506095,360160.000000,1155022.000000
1316.170205,-0.506267,362173.000000,1161938.000000
1319.544447,-0.505748,364403.000000,1167697.000000
1324.036591,-0.505803,366317.000000,1173977.000000
1327.400565,-0.506563,366589.000000,1176908.000000
1330.760139,-0.504499,368623.000000,1177826.000000
1334.115313,-0.504694,368498.000000,1177955.000000
1337.466087,-0.502634,370046.000000,1177307.000000
1340.812461,-0.501636,370709.000000,1176708.000000
1344.154435,-0.499255,371502.000000,1172778.000000
1348.603555,-0.496213,371615.000000,1164948.000000
1351.935262,-0.494769,370997.000000,1159149.000000
1355.262569,-0.490158,371791.000000,1149361.000000
1358.585475,-0.488229,370879.000000,1141461.000000
1361.903982,-0.485087,370539.000000,1132193.000000
1365.218088,-0.480226,371657.000000,1122971.000000
1369.630052,-0.476672,372397.000000,1116036.000000
1372.933891,-0.474355,372524.000000,1110476.000000
1376.233331,-0.472101,372314.000000,1104104.000000
1379.528370,-0.470628,371243.000000,1097202.000000
1382.819009,-0.469846,369231.000000,1089292.000000
1386.105248,-0.468523,367705.000000,1081491.000000
1389.387087,-0.466813,367073.000000,1075388.000000
1393.756027,-0.462395,365715.000000,1060567.000000
1397.027599,-0.459328,365152.000000,1051482.000000
1400.294771,-0.454445,365097.000000,1039569.000000
1403.557542,-0.449716,364333.000000,1026158.000000
1406.815914,-0.442093,365413.000000,1011293.000000
1410.069885,-0.434352,365734.000000,994299.000000
1413.319456,-0.426651,364947.000000,974722.000000
1417.645373,-0.414555,365539.000000,949486.000000
1420.884678,-0.405743,365230.000000,929628.000000
1424.119582,-0.397236,365533.000000,912352.000000
1427.350086,-0.390564,364906.000000,896902.000000
1430.576190,-0.382529,365583.000000,882095.000000
1433.797894,-0.377107,365648.000000,871304.000000
1437.015198,-0.371909,365698.000000,861056.000000
1441.298091,-0.366885,364890.000000,849273.000000
1444.505128,-0.363315,364741.000000,841975.000000
1447.707765,-0.359171,364393.000000,833184.000000
1450.906001,-0.356996,363044.000000,825952.000000
1454.099838,-0.353443,362635.000000,818300.000000
1457.289274,-0.350170,361653.000000,809957.000000
1461.535011,-0.345371,360303.000000,798067.000000
1464.714180,-0.343422,358064.000000,789556.000000
1467.888950,-0.338955,356949.000000,779043.000000
1471.059319,-0.335132,355912.000000,769971.000000
1474.225288,-0.332255,353737.000000,760214.000000
1477.386857,-0.328939,352477.000000,751744.000000
1480.544025,-0.327753,349693.000000,743772.000000
1484.746739,-0.325553,347943.000000,736310.000000
1487.893641,-0.325941,344781.000000,730271.000000
1491.036142,-0.326186,342531.000000,725916.000000
1494.174244,-0.326207,340170.000000,720947.000000
1497.307945,-0.327718,337701.000000,718209.000000
1500.437247,-0.330016,334446.000000,715059.000000
1503.562148,-0.330741,331876.000000,710750.000000
1507.721838,-0.334283,327918.000000,708025.000000
1510.836473,-0.336758,324967.000000,705663.000000
1513.946707,-0.339068,321718.000000,702333.000000
1517.052541,-0.339767,319073.000000,697681.000000
1520.153975,-0.342294,315575.000000,694060.000000
1523.251008,-0.343539,311252.000000,686516.000000
1527.373542,-0.344406,306492.000000,677369.000000
1530.460309,-0.345815,302471.000000,670655.000000
1533.542676,-0.345508,298873.000000,662208.000000
1536.620642,-0.346525,294593.000000,654256.000000
1539.694209,-0.346785,290524.000000,645605.000000
1542.763375,-0.347937,285805.000000,636805.000000
1545.828141,-0.348126,281854.000000,628275.000000
1549.907652,-0.350192,274841.000000,615565.000000
1552.962151,-0.351794,270515.000000,608114.000000
1556.012250,-0.353346,265203.000000,598308.000000
1559.057949,-0.354775,260042.000000,588598.000000
1562.099248,-0.355348,255973.000000,580153.000000
1565.136147,-0.357147,250523.000000,570157.000000
1568.168646,-0.357540,245616.000000,559496.000000
1572.205133,-0.360112,238774.000000,547141.000000
1575.227365,-0.360327,234179.000000,536877.000000
1578.245196,-0.361728,228934.000000,526549.000000
1581.258628,-0.363794,223478.000000,516450.000000
1584.267659,-0.365460,218239.000000,506282.000000
1587.272290,-0.366886,213357.000000,496584.000000
1591.271621,-0.369545,206678.000000,483993.000000
1594.265985,-0.374564,200655.000000,475351.000000
1597.255949,-0.376918,196105.000000,467097.000000
1600.241513,-0.380480,191413.000000,459676.000000
1603.222677,-0.384217,186271.000000,451193.000000
1606.199441,-0.387229,181567.000000,442859.000000
1609.171805,-0.392215,176656.000000,435856.000000
1613.128112,-0.397159,170106.000000,424501.000000
1616.090209,-0.400328,165195.000000,415265.000000
1619.047905,-0.402949,160661.000000,406312.000000
1622.001202,-0.410579,154762.000000,398330.000000
1624.950098,-0.416396,149284.000000,389412.000000
1627.894595,-0.421305,144304.000000,380700.000000
1630.834691,-0.427955,138573.000000,371222.000000
1634.747975,-0.434441,131373.000000,357229.000000
1637.677804,-0.441859,126061.000000,348690.000000
1640.603233,-0.451805,120043.000000,339736.000000
1643.524262,-0.460868,114222.000000,330079.000000
1646.440891,-0.465244,109595.000000,319915.000000
1649.353120,-0.472952,104146.000000,309453.000000
1653.229247,-0.463095,102337.000000,297254.000000
1656.131209,-0.455292,100118.000000,285630.000000
1659.028770,-0.461737,95076.000000,275301.000000
1661.921932,-0.449873,93881.000000,264515.000000
1664.810693,-0.448512,90392.000000,253888.000000
1667.695055,-0.447704,85969.000000,241016.000000
1670.575016,-0.440827,82225.000000,226898.000000
1674.408120,-0.413443,78925.000000,204483.000000
1677.277814,-inf,0.000000,185899.000000
1680.143108,-inf,0.000000,166489.000000
1683.004002,nan,-2147483648.000000,144659.000000
1685.860496,nan,-2147483648.000000,124277.000000
1688.712590,nan,-2147483648.000000,105486.000000
1691.560283,nan,-2147483648.000000,88925.000000
1695.350364,nan,-2147483648.000000,68753.000000
1698.187790,nan,-2147483648.000000,58539.000000
1701.020817,-inf,0.000000,48936.000000
