Method:,erol,,
Host Date-Time:,7/12/23 @ 14:13:0,,
Header Version:,1,,
System Temp (C):,40.56,,
Detector Temp (C):,27.7,,
Humidity (%):,16.46,,
Lamp PD:,3571,,
Shift Vector Coefficients:,-4.80707,0.053312,-0.000138677,,
Pixel to Wavelength Coefficients:,1763.6,-0.910608,-0.000244451,,
Serial Number:,6110061,,
Scan Config Name:,erol,,
Scan Config Type:,Slew,,
Section 1,,
Start wavelength (nm):,900,,
End wavelength (nm):,1700,,
Pattern Pixel Width (nm):,  11.71,,,,
Exposure (ms):,  0.635,,,,
Digital Resolution:,228,,
Num Repeats:,1,,
PGA Gain:,64,,
Total Measurement Time in sec:,  1.593,,
Wavelength (nm),Absorbance (AU),Reference Signal (unitless),Sample Signal (unitless)
901.370984,-0.375038,22318.000000,52929.000000
905.248306,-0.364062,26694.000000,61727.000000
909.121227,-0.363031,30240.000000,69761.000000
912.989749,-0.340715,35053.000000,76814.000000
918.140932,-0.328164,39668.000000,84451.000000
921.999187,-0.322092,44171.000000,92732.000000
925.853041,-0.318536,49463.000000,102995.000000
929.702495,-0.317438,55176.000000,114601.000000
933.547549,-0.311184,62603.000000,128168.000000
937.388203,-0.305214,70557.000000,142480.000000
941.224457,-0.300026,79215.000000,158064.000000
946.332618,-0.292483,90003.000000,176498.000000
950.158605,-0.288049,97001.000000,188289.000000
953.980191,-0.282310,104340.000000,199876.000000
957.797378,-0.280303,111157.000000,211953.000000
961.610165,-0.279490,117414.000000,223465.000000
965.418551,-0.275945,124361.000000,234763.000000
969.222537,-0.272929,131496.000000,246514.000000
974.287675,-0.270374,140925.000000,262641.000000
978.081394,-0.268324,148023.000000,274570.000000
981.870713,-0.268215,155197.000000,287805.000000
985.655632,-0.268573,162010.000000,300687.000000
989.436151,-0.263381,170019.000000,311802.000000
993.212270,-0.263609,176266.000000,323428.000000
998.240251,-0.260742,184964.000000,337155.000000
1002.006103,-0.260240,190519.000000,346879.000000
1005.767554,-0.256394,196102.000000,353896.000000
1009.524606,-0.255319,200098.000000,360215.000000
1013.277258,-0.255110,204164.000000,367358.000000
1017.025509,-0.252906,206631.000000,369915.000000
1020.769360,-0.251290,209246.000000,373205.000000
1025.754318,-0.250674,211932.000000,377460.000000
1029.487902,-0.249258,213316.000000,378688.000000
1033.217086,-0.247463,213821.000000,378019.000000
1036.941870,-0.247526,213615.000000,377709.000000
1040.662255,-0.247082,213930.000000,377880.000000
1044.378238,-0.245448,213905.000000,376417.000000
1048.089822,-0.246040,213173.000000,375640.000000
1053.031756,-0.243796,211884.000000,371445.000000
1056.733073,-0.243464,211098.000000,369784.000000
1060.429990,-0.243958,209880.000000,368069.000000
1064.122506,-0.242642,209078.000000,365553.000000
1067.810623,-0.241608,208224.000000,363194.000000
1071.494339,-0.242885,206922.000000,361986.000000
1076.399116,-0.242869,206676.000000,361542.000000
1080.072566,-0.241684,206200.000000,359727.000000
1083.741615,-0.241976,205636.000000,358984.000000
1087.406264,-0.239778,205874.000000,357585.000000
1091.066513,-0.239878,205797.000000,357534.000000
1094.722362,-0.240509,205514.000000,357561.000000
1098.373811,-0.239276,205628.000000,356745.000000
1103.235565,-0.237285,206788.000000,357117.000000
1106.876747,-0.237528,206389.000000,356627.000000
1110.513529,-0.235317,206615.000000,355205.000000
1114.145910,-0.233422,206738.000000,353869.000000
1117.773892,-0.229750,206547.000000,350565.000000
1121.397473,-0.225285,207088.000000,347888.000000
1125.016654,-0.223486,206464.000000,345406.000000
1129.835385,-0.218505,207418.000000,343045.000000
1133.444299,-0.217039,207695.000000,342346.000000
1137.048813,-0.217760,208493.000000,344232.000000
1140.648927,-0.218579,208223.000000,344435.000000
1144.244641,-0.221286,208337.000000,346779.000000
1147.835955,-0.222494,208774.000000,348474.000000
1152.617529,-0.222746,208238.000000,347781.000000
1156.198576,-0.221972,208484.000000,347572.000000
1159.775223,-0.219705,208962.000000,346555.000000
1163.347470,-0.219461,209317.000000,346949.000000
1166.915316,-0.217270,209935.000000,346222.000000
1170.478763,-0.214722,211435.000000,346656.000000
1174.037809,-0.210121,213105.000000,345712.000000
1178.776359,-0.208957,214394.000000,346872.000000
1182.325139,-0.203625,217962.000000,348342.000000
1185.869518,-0.200898,220075.000000,349517.000000
1189.409497,-0.199693,222694.000000,352697.000000
1192.945076,-0.200040,224594.000000,355990.000000
1196.476255,-0.197629,226828.000000,357541.000000
1200.003034,-0.198223,229675.000000,362524.000000
1204.698561,-0.197974,232729.000000,367134.000000
1208.215073,-0.197667,235830.000000,371763.000000
1211.727185,-0.198449,238631.000000,376856.000000
1215.234896,-0.197000,241974.000000,380863.000000
1218.738208,-0.196941,245450.000000,386282.000000
1222.237119,-0.197301,248996.000000,392187.000000
1226.895489,-0.196793,254001.000000,399603.000000
1230.384134,-0.197016,257796.000000,405781.000000
1233.868378,-0.197030,261030.000000,410885.000000
1237.348222,-0.199800,264910.000000,419661.000000
1240.823666,-0.199206,269187.000000,425853.000000
1244.294710,-0.199016,274535.000000,434124.000000
1247.761354,-0.201352,278817.000000,443273.000000
1252.376701,-0.202131,285943.000000,455418.000000
1255.833078,-0.201909,292339.000000,465367.000000
1259.285055,-0.202361,298387.000000,475489.000000
1262.732632,-0.202387,303484.000000,483641.000000
1266.175808,-0.202543,308643.000000,492039.000000
1269.614584,-0.202989,313923.000000,500971.000000
1273.048961,-0.202738,319097.000000,508933.000000
1277.621284,-0.205209,324380.000000,520311.000000
1281.045394,-0.203951,329793.000000,527464.000000
1284.465103,-0.205317,333450.000000,534992.000000
1287.880412,-0.205192,337104.000000,540699.000000
1291.291321,-0.207095,340768.000000,548976.000000
1294.697830,-0.206502,344605.000000,554400.000000
1299.232997,-0.207112,349244.000000,562654.000000
1302.629239,-0.206336,352441.000000,566790.000000
1306.021081,-0.207198,355144.000000,572272.000000
1309.408522,-0.206684,357732.000000,575761.000000
1312.791564,-0.205496,360160.000000,578085.000000
1316.170205,-0.206708,362173.000000,582940.000000
1319.544447,-0.205683,364403.000000,585147.000000
1324.036591,-0.205614,366317.000000,588127.000000
1327.400565,-0.206480,366589.000000,589739.000000
1330.760139,-0.205317,368623.000000,591424.000000
1334.115313,-0.204779,368498.000000,590492.000000
1337.466087,-0.203341,370046.000000,591013.000000
1340.812461,-0.201725,370709.000000,589873.000000
1344.154435,-0.199398,371502.000000,587975.000000
1348.603555,-0.195016,371615.000000,582250.000000
1351.935262,-0.192911,370997.000000,578471.000000
1355.262569,-0.188129,371791.000000,573360.000000
1358.585475,-0.184780,370879.000000,567560.000000
1361.903982,-0.183035,370539.000000,564766.000000
1365.218088,-0.178005,371657.000000,559948.000000
1369.630052,-0.175268,372397.000000,557537.000000
1372.933891,-0.173926,372524.000000,556007.000000
1376.233331,-0.172648,372314.000000,554061.000000
1379.528370,-0.170611,371243.000000,549882.000000
1382.819009,-0.171121,369231.000000,547544.000000
1386.105248,-0.169327,367705.000000,543034.000000
1389.387087,-0.166751,367073.000000,538894.000000
1393.756027,-0.163775,365715.000000,533234.000000
1397.027599,-0.161608,365152.000000,529763.000000
1400.294771,-0.158932,365097.000000,526429.000000
1403.557542,-0.153982,364333.000000,519374.000000
1406.815914,-0.148669,365413.000000,514580.000000
1410.069885,-0.143615,365734.000000,509073.000000
1413.319456,-0.138994,364947.000000,502602.000000
1417.645373,-0.131118,365539.000000,494370.000000
1420.884678,-0.125817,365230.000000,487959.000000
1424.119582,-0.120586,365533.000000,482517.000000
1427.350086,-0.116775,364906.000000,477481.000000
1430.576190,-0.111614,365583.000000,472716.000000
1433.797894,-0.106521,365648.000000,467288.000000
1437.015198,-0.103884,365698.000000,464522.000000
1441.298091,-0.100151,364890.000000,459529.000000
1444.505128,-0.098843,364741.000000,457960.000000
1447.707765,-0.095817,364393.000000,454346.000000
1450.906001,-0.095555,363044.000000,452391.000000
1454.099838,-0.092835,362635.000000,449060.000000
1457.289274,-0.089240,361653.000000,444152.000000
1461.535011,-0.087958,360303.000000,441190.000000
1464.714180,-0.086107,358064.000000,436584.000000
1467.888950,-0.082005,356949.000000,431133.000000
1471.059319,-0.079396,355912.000000,427306.000000
1474.225288,-0.076622,353737.000000,421990.000000
1477.386857,-0.074701,352477.000000,418631.000000
1480.544025,-0.075692,349693.000000,416274.000000
1484.746739,-0.072191,347943.000000,410865.000000
1487.893641,-0.074037,344781.000000,408865.000000
1491.036142,-0.073238,342531.000000,405451.000000
1494.174244,-0.073179,340170.000000,402601.000000
1497.307945,-0.075576,337701.000000,401891.000000
1500.437247,-0.077505,334446.000000,399789.000000
1503.562148,-0.078036,331876.000000,397202.000000
1507.721838,-0.082351,327918.000000,396384.000000
1510.836473,-0.083806,324967.000000,394135.000000
1513.946707,-0.086623,321718.000000,392734.000000
1517.052541,-0.086548,319073.000000,389438.000000
1520.153975,-0.087574,315575.000000,386079.000000
1523.251008,-0.091398,311252.000000,384158.000000
1527.373542,-0.091044,306492.000000,377975.000000
1530.460309,-0.091304,302471.000000,373240.000000
1533.542676,-0.091019,298873.000000,368558.000000
1536.620642,-0.091837,294593.000000,363965.000000
1539.694209,-0.091719,290524.000000,358840.000000
1542.763375,-0.092119,285805.000000,353337.000000
1545.828141,-0.091682,281854.000000,348102.000000
1549.907652,-0.094447,274841.000000,341608.000000
1552.962151,-0.093597,270515.000000,335574.000000
1556.012250,-0.097112,265203.000000,331658.000000
1559.057949,-0.097293,260042.000000,325339.000000
1562.099248,-0.095319,255973.000000,318796.000000
1565.136147,-0.096928,250523.000000,313167.000000
1568.168646,-0.098360,245616.000000,308047.000000
1572.205133,-0.098523,238774.000000,299578.000000
1575.227365,-0.098013,234179.000000,293468.000000
1578.245196,-0.100210,228934.000000,288350.000000
1581.258628,-0.102602,223478.000000,283033.000000
1584.267659,-0.102112,218239.000000,276086.000000
1587.272290,-0.105513,213357.000000,272032.000000
1591.271621,-0.105424,206678.000000,263462.000000
1594.265985,-0.108071,200655.000000,257348.000000
1597.255949,-0.108977,196105.000000,252038.000000
1600.241513,-0.110289,191413.000000,246752.000000
1603.222677,-0.112417,186271.000000,241303.000000
1606.199441,-0.113277,181567.000000,235675.000000
1609.171805,-0.114225,176656.000000,229802.000000
1613.128112,-0.114297,170106.000000,221318.000000
1616.090209,-0.117990,165195.000000,216764.000000
1619.047905,-0.118781,160661.000000,211199.000000
1622.001202,-0.124186,154762.000000,205992.000000
1624.950098,-0.128077,149284.000000,200489.000000
1627.894595,-0.128474,144304.000000,193978.000000
1630.834691,-0.129673,138573.000000,186789.000000
1634.747975,-0.134369,131373.000000,179009.000000
1637.677804,-0.132100,126061.000000,170876.000000
1640.603233,-0.131113,120043.000000,162349.000000
1643.524262,-0.130872,114222.000000,154391.000000
1646.440891,-0.127450,109595.000000,146974.000000
1649.353120,-0.122394,104146.000000,138050.000000
1653.229247,-0.096417,102337.000000,127776.000000
1656.131209,-0.085499,100118.000000,121902.000000
1659.028770,-0.087412,95076.000000,116274.000000
1661.921932,-0.076466,93881.000000,111955.000000
1664.810693,-0.079176,90392.000000,108469.000000
1667.695055,-0.085451,85969.000000,104663.000000
1670.575016,-0.087080,82225.000000,100481.000000
1674.408120,-0.077941,78925.000000,94440.000000
1677.277814,-inf,0.000000,88377.000000
1680.143108,-inf,0.000000,79248.000000
1683.004002,nan,-2147483648.000000,70494.000000
1685.860496,nan,-2147483648.000000,62054.000000
1688.712590,nan,-2147483648.000000,53090.000000
1691.560283,nan,-2147483648.000000,45848.000000
1695.350364,nan,-2147483648.000000,37141.000000
1698.187790,nan,-2147483648.000000,31066.000000
1701.020817,-inf,0.000000,24557.000000
