Method:,erol,,
Host Date-Time:,7/12/23 @ 14:12:33,,
Header Version:,1,,
System Temp (C):,40.46,,
Detector Temp (C):,27.82,,
Humidity (%):,16.55,,
Lamp PD:,3570,,
Shift Vector Coefficients:,-4.80707,0.053312,-0.000138677,,
Pixel to Wavelength Coefficients:,1763.6,-0.910608,-0.000244451,,
Serial Number:,6110061,,
Scan Config Name:,erol,,
Scan Config Type:,Slew,,
Section 1,,
Start wavelength (nm):,900,,
End wavelength (nm):,1700,,
Pattern Pixel Width (nm):,  11.71,,,,
Exposure (ms):,  0.635,,,,
Digital Resolution:,228,,
Num Repeats:,1,,
PGA Gain:,64,,
Total Measurement Time in sec:,  1.646,,
Wavelength (nm),Absorbance (AU),Reference Signal (unitless),Sample Signal (unitless)
901.370984,-0.753655,22318.000000,126564.000000
905.248306,-0.742190,26694.000000,147436.000000
909.121227,-0.735370,30240.000000,164419.000000
912.989749,-0.706212,35053.000000,178212.000000
918.140932,-0.702505,39668.000000,199961.000000
921.999187,-0.695180,44171.000000,218936.000000
925.853041,-0.688250,49463.000000,241285.000000
929.702495,-0.689710,55176.000000,270060.000000
933.547549,-0.684195,62603.000000,302545.000000
937.388203,-0.679785,70557.000000,337540.000000
941.224457,-0.672593,79215.000000,372735.000000
946.332618,-0.665502,90003.000000,416638.000000
950.158605,-0.663081,97001.000000,446537.000000
953.980191,-0.657404,104340.000000,474083.000000
957.797378,-0.654902,111157.000000,502156.000000
961.610165,-0.652791,117414.000000,527850.000000
965.418551,-0.650487,124361.000000,556123.000000
969.222537,-0.647580,131496.000000,584107.000000
974.287675,-0.645390,140925.000000,622842.000000
978.081394,-0.643190,148023.000000,650907.000000
981.870713,-0.641553,155197.000000,679887.000000
985.655632,-0.641238,162010.000000,709218.000000
989.436151,-0.637219,170019.000000,737423.000000
993.212270,-0.637350,176266.000000,764749.000000
998.240251,-0.634623,184964.000000,797463.000000
1002.006103,-0.633833,190519.000000,819919.000000
1005.767554,-0.630908,196102.000000,838281.000000
1009.524606,-0.630324,200098.000000,854214.000000
1013.277258,-0.628420,204164.000000,867759.000000
1017.025509,-0.627169,206631.000000,875719.000000
1020.769360,-0.625915,209246.000000,884245.000000
1025.754318,-0.623985,211932.000000,891624.000000
1029.487902,-0.621932,213316.000000,893213.000000
1033.217086,-0.622456,213821.000000,896409.000000
1036.941870,-0.622086,213615.000000,894783.000000
1040.662255,-0.620669,213930.000000,893183.000000
1044.378238,-0.619401,213905.000000,890475.000000
1048.089822,-0.619381,213173.000000,887387.000000
1053.031756,-0.618009,211884.000000,879240.000000
1056.733073,-0.616706,211098.000000,873354.000000
1060.429990,-0.617055,209880.000000,869013.000000
1064.122506,-0.615983,209078.000000,863557.000000
1067.810623,-0.615691,208224.000000,859453.000000
1071.494339,-0.616887,206922.000000,856434.000000
1076.399116,-0.615029,206676.000000,851764.000000
1080.072566,-0.615053,206200.000000,849848.000000
1083.741615,-0.614876,205636.000000,847178.000000
1087.406264,-0.613438,205874.000000,845355.000000
1091.066513,-0.613006,205797.000000,844199.000000
1094.722362,-0.613681,205514.000000,844350.000000
1098.373811,-0.613606,205628.000000,844673.000000
1103.235565,-0.610324,206788.000000,843043.000000
1106.876747,-0.610548,206389.000000,841849.000000
1110.513529,-0.608567,206615.000000,838936.000000
1114.145910,-0.606516,206738.000000,835481.000000
1117.773892,-0.605152,206547.000000,832091.000000
1121.397473,-0.600960,207088.000000,826257.000000
1125.016654,-0.598642,206464.000000,819382.000000
1129.835385,-0.593363,207418.000000,813222.000000
1133.444299,-0.594203,207695.000000,815886.000000
1137.048813,-0.593712,208493.000000,818094.000000
1140.648927,-0.596677,208223.000000,822632.000000
1144.244641,-0.599498,208337.000000,828446.000000
1147.835955,-0.599534,208774.000000,830252.000000
1152.617529,-0.601342,208238.000000,831577.000000
1156.198576,-0.599320,208484.000000,828691.000000
1159.775223,-0.598534,208962.000000,829089.000000
1163.347470,-0.597136,209317.000000,827828.000000
1166.915316,-0.595543,209935.000000,827233.000000
1170.478763,-0.592590,211435.000000,827498.000000
1174.037809,-0.589825,213105.000000,828741.000000
1178.776359,-0.588228,214394.000000,830694.000000
1182.325139,-0.582273,217962.000000,833017.000000
1185.869518,-0.581539,220075.000000,839673.000000
1189.409497,-0.579429,222694.000000,845547.000000
1192.945076,-0.578467,224594.000000,850874.000000
1196.476255,-0.577963,226828.000000,858340.000000
1200.003034,-0.576681,229675.000000,866553.000000
1204.698561,-0.577198,232729.000000,879121.000000
1208.215073,-0.575961,235830.000000,888300.000000
1211.727185,-0.575931,238631.000000,898790.000000
1215.234896,-0.575057,241974.000000,909548.000000
1218.738208,-0.575410,245450.000000,923364.000000
1222.237119,-0.574853,248996.000000,935504.000000
1226.895489,-0.574143,254001.000000,952748.000000
1230.384134,-0.574009,257796.000000,966686.000000
1233.868378,-0.575158,261030.000000,981405.000000
1237.348222,-0.575392,264910.000000,996531.000000
1240.823666,-0.576444,269187.000000,1015076.000000
1244.294710,-0.575005,274535.000000,1031818.000000
1247.761354,-0.576879,278817.000000,1052443.000000
1252.376701,-0.577153,285943.000000,1080022.000000
1255.833078,-0.576910,292339.000000,1103562.000000
1259.285055,-0.576389,298387.000000,1125042.000000
1262.732632,-0.576998,303484.000000,1145867.000000
1266.175808,-0.577594,308643.000000,1166945.000000
1269.614584,-0.577412,313923.000000,1186410.000000
1273.048961,-0.576997,319097.000000,1204813.000000
1277.621284,-0.578617,324380.000000,1229337.000000
1281.045394,-0.577944,329793.000000,1247916.000000
1284.465103,-0.578665,333450.000000,1263851.000000
1287.880412,-0.579269,337104.000000,1279478.000000
1291.291321,-0.579199,340768.000000,1293177.000000
1294.697830,-0.579247,344605.000000,1307881.000000
1299.232997,-0.579574,349244.000000,1326488.000000
1302.629239,-0.579220,352441.000000,1337538.000000
1306.021081,-0.578877,355144.000000,1346732.000000
1309.408522,-0.578619,357732.000000,1355742.000000
1312.791564,-0.578159,360160.000000,1363498.000000
1316.170205,-0.578085,362173.000000,1370885.000000
1319.544447,-0.577484,364403.000000,1377418.000000
1324.036591,-0.577396,366317.000000,1384373.000000
1327.400565,-0.578098,366589.000000,1387643.000000
1330.760139,-0.575977,368623.000000,1388543.000000
1334.115313,-0.576441,368498.000000,1389556.000000
1337.466087,-0.574105,370046.000000,1387909.000000
1340.812461,-0.572817,370709.000000,1386276.000000
1344.154435,-0.570205,371502.000000,1380914.000000
1348.603555,-0.567003,371615.000000,1371187.000000
1351.935262,-0.563678,370997.000000,1358466.000000
1355.262569,-0.559057,371791.000000,1346964.000000
1358.585475,-0.556507,370879.000000,1335792.000000
1361.903982,-0.553127,370539.000000,1324223.000000
1365.218088,-0.548874,371657.000000,1315273.000000
1369.630052,-0.545678,372397.000000,1308231.000000
1372.933891,-0.544270,372524.000000,1304439.000000
1376.233331,-0.542264,372314.000000,1297697.000000
1379.528370,-0.541155,371243.000000,1290664.000000
1382.819009,-0.540462,369231.000000,1281623.000000
1386.105248,-0.539379,367705.000000,1273148.000000
1389.387087,-0.537287,367073.000000,1264851.000000
1393.756027,-0.534210,365715.000000,1251276.000000
1397.027599,-0.531379,365152.000000,1241230.000000
1400.294771,-0.527514,365097.000000,1230049.000000
1403.557542,-0.523891,364333.000000,1217277.000000
1406.815914,-0.518168,365413.000000,1204904.000000
1410.069885,-0.512340,365734.000000,1189886.000000
1413.319456,-0.507164,364947.000000,1173260.000000
1417.645373,-0.498138,365539.000000,1150991.000000
1420.884678,-0.492701,365230.000000,1135709.000000
1424.119582,-0.486678,365533.000000,1120998.000000
1427.350086,-0.482552,364906.000000,1108492.000000
1430.576190,-0.477817,365583.000000,1098508.000000
1433.797894,-0.473207,365648.000000,1087103.000000
1437.015198,-0.469291,365698.000000,1077491.000000
1441.298091,-0.466215,364890.000000,1067522.000000
1444.505128,-0.463139,364741.000000,1059554.000000
1447.707765,-0.460278,364393.000000,1051595.000000
1450.906001,-0.458859,363044.000000,1044284.000000
1454.099838,-0.456392,362635.000000,1037198.000000
1457.289274,-0.454201,361653.000000,1029183.000000
1461.535011,-0.450173,360303.000000,1015876.000000
1464.714180,-0.448430,358064.000000,1005520.000000
1467.888950,-0.445024,356949.000000,994557.000000
1471.059319,-0.442291,355912.000000,985447.000000
1474.225288,-0.440496,353737.000000,975386.000000
1477.386857,-0.438042,352477.000000,966436.000000
1480.544025,-0.437254,349693.000000,957063.000000
1484.746739,-0.435482,347943.000000,948397.000000
1487.893641,-0.437117,344781.000000,943323.000000
1491.036142,-0.436462,342531.000000,935754.000000
1494.174244,-0.436559,340170.000000,929513.000000
1497.307945,-0.437778,337701.000000,925360.000000
1500.437247,-0.440174,334446.000000,921510.000000
1503.562148,-0.441812,331876.000000,917884.000000
1507.721838,-0.444740,327918.000000,913073.000000
1510.836473,-0.447642,324967.000000,910922.000000
1513.946707,-0.449728,321718.000000,906157.000000
1517.052541,-0.449976,319073.000000,899221.000000
1520.153975,-0.451910,315575.000000,893331.000000
1523.251008,-0.454398,311252.000000,886156.000000
1527.373542,-0.454990,306492.000000,873794.000000
1530.460309,-0.455721,302471.000000,863784.000000
1533.542676,-0.455694,298873.000000,853455.000000
1536.620642,-0.456142,294593.000000,842102.000000
1539.694209,-0.456141,290524.000000,830469.000000
1542.763375,-0.456820,285805.000000,818258.000000
1545.828141,-0.457618,281854.000000,808429.000000
1549.907652,-0.459389,274841.000000,791536.000000
1552.962151,-0.460047,270515.000000,780258.000000
1556.012250,-0.460905,265203.000000,766449.000000
1559.057949,-0.462512,260042.000000,754319.000000
1562.099248,-0.461137,255973.000000,740170.000000
1565.136147,-0.461988,250523.000000,725831.000000
1568.168646,-0.463145,245616.000000,713512.000000
1572.205133,-0.464306,238774.000000,695493.000000
1575.227365,-0.464655,234179.000000,682657.000000
1578.245196,-0.465726,228934.000000,669016.000000
1581.258628,-0.467234,223478.000000,655343.000000
1584.267659,-0.468274,218239.000000,641515.000000
1587.272290,-0.469705,213357.000000,629234.000000
1591.271621,-0.471278,206678.000000,611747.000000
1594.265985,-0.475865,200655.000000,600226.000000
1597.255949,-0.476442,196105.000000,587395.000000
1600.241513,-0.478287,191413.000000,575782.000000
1603.222677,-0.480564,186271.000000,563260.000000
1606.199441,-0.481229,181567.000000,549878.000000
1609.171805,-0.483840,176656.000000,538231.000000
1613.128112,-0.485384,170106.000000,520120.000000
1616.090209,-0.486817,165195.000000,506773.000000
1619.047905,-0.488745,160661.000000,495057.000000
1622.001202,-0.492576,154762.000000,481106.000000
1624.950098,-0.496436,149284.000000,468219.000000
1627.894595,-0.497086,144304.000000,453278.000000
1630.834691,-0.500621,138573.000000,438833.000000
1634.747975,-0.501546,131373.000000,416919.000000
1637.677804,-0.500256,126061.000000,398875.000000
1640.603233,-0.499155,120043.000000,378871.000000
1643.524262,-0.496559,114222.000000,358351.000000
1646.440891,-0.490269,109595.000000,338891.000000
1649.353120,-0.485629,104146.000000,318619.000000
1653.229247,-0.458809,102337.000000,294335.000000
1656.131209,-0.444207,100118.000000,278432.000000
1659.028770,-0.448824,95076.000000,267236.000000
1661.921932,-0.439262,93881.000000,258131.000000
1664.810693,-0.443398,90392.000000,250916.000000
1667.695055,-0.451809,85969.000000,243305.000000
1670.575016,-0.451837,82225.000000,232724.000000
1674.408120,-0.440089,78925.000000,217422.000000
1677.277814,-inf,0.000000,200789.000000
1680.143108,-inf,0.000000,184827.000000
1683.004002,nan,-2147483648.000000,164445.000000
1685.860496,nan,-2147483648.000000,145579.000000
1688.712590,nan,-2147483648.000000,125415.000000
1691.560283,nan,-2147483648.000000,106664.000000
1695.350364,nan,-2147483648.000000,84001.000000
1698.187790,nan,-2147483648.000000,70683.000000
1701.020817,-inf,0.000000,58561.000000
