Method:,erol,,
Host Date-Time:,7/12/23 @ 14:14:5,,
Header Version:,1,,
System Temp (C):,40.83,,
Detector Temp (C):,26.99,,
Humidity (%):,16.27,,
Lamp PD:,3546,,
Shift Vector Coefficients:,-4.80707,0.053312,-0.000138677,,
Pixel to Wavelength Coefficients:,1763.6,-0.910608,-0.000244451,,
Serial Number:,6110061,,
Scan Config Name:,erol,,
Scan Config Type:,Slew,,
Section 1,,
Start wavelength (nm):,900,,
End wavelength (nm):,1700,,
Pattern Pixel Width (nm):,  11.71,,,,
Exposure (ms):,  0.635,,,,
Digital Resolution:,228,,
Num Repeats:,1,,
PGA Gain:,64,,
Total Measurement Time in sec:,  1.593,,
Wavelength (nm),Absorbance (AU),Reference Signal (unitless),Sample Signal (unitless)
901.370984,-0.728981,22318.000000,119574.000000
905.248306,-0.716045,26694.000000,138822.000000
909.121227,-0.708791,30240.000000,154658.000000
912.989749,-0.683632,35053.000000,169183.000000
918.140932,-0.678518,39668.000000,189216.000000
921.999187,-0.670041,44171.000000,206623.000000
925.853041,-0.664170,49463.000000,228271.000000
929.702495,-0.664461,55176.000000,254807.000000
933.547549,-0.659113,62603.000000,285567.000000
937.388203,-0.653627,70557.000000,317810.000000
941.224457,-0.647699,79215.000000,351971.000000
946.332618,-0.640556,90003.000000,393381.000000
950.158605,-0.638052,97001.000000,421530.000000
953.980191,-0.631096,104340.000000,446218.000000
957.797378,-0.628164,111157.000000,472173.000000
961.610165,-0.627270,117414.000000,497725.000000
965.418551,-0.624552,124361.000000,523885.000000
969.222537,-0.621751,131496.000000,550381.000000
974.287675,-0.618937,140925.000000,586037.000000
978.081394,-0.617978,148023.000000,614197.000000
981.870713,-0.616816,155197.000000,642243.000000
985.655632,-0.615924,162010.000000,669061.000000
989.436151,-0.612758,170019.000000,697037.000000
993.212270,-0.612692,176266.000000,722537.000000
998.240251,-0.609638,184964.000000,752879.000000
1002.006103,-0.608110,190519.000000,772766.000000
1005.767554,-0.605889,196102.000000,791354.000000
1009.524606,-0.605814,200098.000000,807340.000000
1013.277258,-0.603323,204164.000000,819035.000000
1017.025509,-0.602212,206631.000000,826814.000000
1020.769360,-0.601395,209246.000000,835703.000000
1025.754318,-0.599044,211932.000000,841862.000000
1029.487902,-0.597471,213316.000000,844296.000000
1033.217086,-0.596784,213821.000000,844956.000000
1036.941870,-0.597003,213615.000000,844568.000000
1040.662255,-0.595737,213930.000000,843351.000000
1044.378238,-0.594091,213905.000000,840064.000000
1048.089822,-0.594613,213173.000000,838196.000000
1053.031756,-0.592335,211884.000000,828769.000000
1056.733073,-0.591791,211098.000000,824661.000000
1060.429990,-0.591785,209880.000000,819891.000000
1064.122506,-0.590723,209078.000000,814763.000000
1067.810623,-0.589952,208224.000000,809995.000000
1071.494339,-0.591141,206922.000000,807137.000000
1076.399116,-0.588872,206676.000000,801977.000000
1080.072566,-0.589219,206200.000000,800769.000000
1083.741615,-0.589144,205636.000000,798441.000000
1087.406264,-0.587376,205874.000000,796118.000000
1091.066513,-0.586911,205797.000000,794969.000000
1094.722362,-0.587892,205514.000000,795670.000000
1098.373811,-0.588015,205628.000000,796337.000000
1103.235565,-0.584781,206788.000000,794889.000000
1106.876747,-0.585235,206389.000000,794184.000000
1110.513529,-0.584368,206615.000000,793469.000000
1114.145910,-0.582844,206738.000000,791160.000000
1117.773892,-0.581581,206547.000000,788133.000000
1121.397473,-0.577890,207088.000000,783510.000000
1125.016654,-0.576611,206464.000000,778853.000000
1129.835385,-0.572428,207418.000000,774952.000000
1133.444299,-0.572311,207695.000000,775778.000000
1137.048813,-0.572710,208493.000000,779473.000000
1140.648927,-0.574744,208223.000000,782119.000000
1144.244641,-0.577041,208337.000000,786697.000000
1147.835955,-0.576809,208774.000000,787926.000000
1152.617529,-0.578227,208238.000000,788473.000000
1156.198576,-0.577868,208484.000000,788752.000000
1159.775223,-0.576038,208962.000000,787237.000000
1163.347470,-0.576057,209317.000000,788608.000000
1166.915316,-0.575138,209935.000000,789265.000000
1170.478763,-0.571854,211435.000000,788916.000000
1174.037809,-0.569577,213105.000000,790990.000000
1178.776359,-0.568125,214394.000000,793117.000000
1182.325139,-0.562809,217962.000000,796507.000000
1185.869518,-0.561209,220075.000000,801272.000000
1189.409497,-0.559132,222694.000000,806939.000000
1192.945076,-0.558310,224594.000000,812284.000000
1196.476255,-0.558340,226828.000000,820420.000000
1200.003034,-0.557378,229675.000000,828880.000000
1204.698561,-0.557704,232729.000000,840533.000000
1208.215073,-0.556425,235830.000000,849227.000000
1211.727185,-0.557413,238631.000000,861272.000000
1215.234896,-0.555891,241974.000000,870281.000000
1218.738208,-0.555273,245450.000000,881527.000000
1222.237119,-0.554619,248996.000000,892917.000000
1226.895489,-0.554388,254001.000000,910382.000000
1230.384134,-0.554332,257796.000000,923864.000000
1233.868378,-0.555189,261030.000000,937301.000000
1237.348222,-0.554817,264910.000000,950420.000000
1240.823666,-0.555946,269187.000000,968278.000000
1244.294710,-0.554655,274535.000000,984583.000000
1247.761354,-0.556109,278817.000000,1003293.000000
1252.376701,-0.556198,285943.000000,1029146.000000
1255.833078,-0.555436,292339.000000,1050323.000000
1259.285055,-0.554677,298387.000000,1070179.000000
1262.732632,-0.555913,303484.000000,1091562.000000
1266.175808,-0.555775,308643.000000,1109765.000000
1269.614584,-0.555779,313923.000000,1128762.000000
1273.048961,-0.554946,319097.000000,1145166.000000
1277.621284,-0.557111,324380.000000,1169945.000000
1281.045394,-0.555331,329793.000000,1184601.000000
1284.465103,-0.556473,333450.000000,1200892.000000
1287.880412,-0.556959,337104.000000,1215410.000000
1291.291321,-0.557175,340768.000000,1229233.000000
1294.697830,-0.556757,344605.000000,1241876.000000
1299.232997,-0.556374,349244.000000,1257485.000000
1302.629239,-0.556513,352441.000000,1269402.000000
1306.021081,-0.555995,355144.000000,1277614.000000
1309.408522,-0.555523,357732.000000,1285526.000000
1312.791564,-0.555240,360160.000000,1293408.000000
1316.170205,-0.555530,362173.000000,1301505.000000
1319.544447,-0.554636,364403.000000,1306827.000000
1324.036591,-0.554648,366317.000000,1313727.000000
1327.400565,-0.555658,366589.000000,1317762.000000
1330.760139,-0.554163,368623.000000,1320520.000000
1334.115313,-0.554916,368498.000000,1322363.000000
1337.466087,-0.553180,370046.000000,1322622.000000
1340.812461,-0.552020,370709.000000,1321458.000000
1344.154435,-0.550033,371502.000000,1318238.000000
1348.603555,-0.547131,371615.000000,1309858.000000
1351.935262,-0.545220,370997.000000,1301939.000000
1355.262569,-0.541541,371791.000000,1293720.000000
1358.585475,-0.539604,370879.000000,1284803.000000
1361.903982,-0.537207,370539.000000,1276558.000000
1365.218088,-0.533709,371657.000000,1270139.000000
1369.630052,-0.530720,372397.000000,1263938.000000
1372.933891,-0.529185,372524.000000,1259908.000000
1376.233331,-0.527799,372314.000000,1255187.000000
1379.528370,-0.526353,371243.000000,1247416.000000
1382.819009,-0.526413,369231.000000,1240826.000000
1386.105248,-0.525261,367705.000000,1232424.000000
1389.387087,-0.522537,367073.000000,1222613.000000
1393.756027,-0.520810,365715.000000,1213256.000000
1397.027599,-0.518455,365152.000000,1204837.000000
1400.294771,-0.515279,365097.000000,1195880.000000
1403.557542,-0.513109,364333.000000,1187428.000000
1406.815914,-0.507178,365413.000000,1174794.000000
1410.069885,-0.502744,365734.000000,1163883.000000
1413.319456,-0.498687,364947.000000,1150579.000000
1417.645373,-0.490577,365539.000000,1131125.000000
1420.884678,-0.486294,365230.000000,1119079.000000
1424.119582,-0.480565,365533.000000,1105329.000000
1427.350086,-0.477334,364906.000000,1095254.000000
1430.576190,-0.472044,365583.000000,1084001.000000
1433.797894,-0.468768,365648.000000,1076047.000000
1437.015198,-0.465190,365698.000000,1067365.000000
1441.298091,-0.462265,364890.000000,1057856.000000
1444.505128,-0.459830,364741.000000,1051512.000000
1447.707765,-0.457086,364393.000000,1043894.000000
1450.906001,-0.455870,363044.000000,1037120.000000
1454.099838,-0.453265,362635.000000,1029756.000000
1457.289274,-0.451561,361653.000000,1022947.000000
1461.535011,-0.447637,360303.000000,1009961.000000
1464.714180,-0.446432,358064.000000,1000905.000000
1467.888950,-0.443596,356949.000000,991293.000000
1471.059319,-0.440279,355912.000000,980893.000000
1474.225288,-0.438923,353737.000000,971860.000000
1477.386857,-0.435885,352477.000000,961647.000000
1480.544025,-0.436679,349693.000000,955797.000000
1484.746739,-0.434076,347943.000000,945332.000000
1487.893641,-0.434781,344781.000000,938263.000000
1491.036142,-0.434816,342531.000000,932214.000000
1494.174244,-0.435453,340170.000000,927148.000000
1497.307945,-0.435860,337701.000000,921281.000000
1500.437247,-0.438600,334446.000000,918177.000000
1503.562148,-0.439442,331876.000000,912889.000000
1507.721838,-0.442679,327918.000000,908750.000000
1510.836473,-0.444197,324967.000000,903724.000000
1513.946707,-0.446848,321718.000000,900167.000000
1517.052541,-0.447449,319073.000000,894004.000000
1520.153975,-0.448835,315575.000000,887029.000000
1523.251008,-0.451527,311252.000000,880318.000000
1527.373542,-0.452264,306492.000000,868326.000000
1530.460309,-0.452373,302471.000000,857150.000000
1533.542676,-0.451959,298873.000000,846147.000000
1536.620642,-0.452548,294593.000000,835161.000000
1539.694209,-0.452405,290524.000000,823354.000000
1542.763375,-0.454119,285805.000000,813184.000000
1545.828141,-0.453274,281854.000000,800383.000000
1549.907652,-0.454911,274841.000000,783416.000000
1552.962151,-0.455076,270515.000000,771379.000000
1556.012250,-0.456834,265203.000000,759298.000000
1559.057949,-0.457713,260042.000000,746030.000000
1562.099248,-0.456557,255973.000000,732404.000000
1565.136147,-0.458805,250523.000000,720531.000000
1568.168646,-0.459025,245616.000000,706776.000000
1572.205133,-0.459889,238774.000000,688455.000000
1575.227365,-0.460543,234179.000000,676224.000000
1578.245196,-0.461011,228934.000000,661792.000000
1581.258628,-0.462675,223478.000000,648499.000000
1584.267659,-0.463591,218239.000000,634634.000000
1587.272290,-0.464586,213357.000000,621860.000000
1591.271621,-0.465646,206678.000000,603866.000000
1594.265985,-0.470123,200655.000000,592342.000000
1597.255949,-0.470592,196105.000000,579536.000000
1600.241513,-0.471441,191413.000000,566777.000000
1603.222677,-0.473195,186271.000000,553784.000000
1606.199441,-0.474694,181567.000000,541665.000000
1609.171805,-0.475538,176656.000000,528039.000000
1613.128112,-0.477425,170106.000000,510675.000000
1616.090209,-0.480341,165195.000000,499273.000000
1619.047905,-0.481090,160661.000000,486408.000000
1622.001202,-0.484995,154762.000000,472780.000000
1624.950098,-0.487650,149284.000000,458842.000000
1627.894595,-0.488890,144304.000000,444804.000000
1630.834691,-0.493148,138573.000000,431347.000000
1634.747975,-0.493417,131373.000000,409188.000000
1637.677804,-0.493205,126061.000000,392451.000000
1640.603233,-0.492577,120043.000000,373176.000000
1643.524262,-0.490659,114222.000000,353516.000000
1646.440891,-0.485235,109595.000000,334985.000000
1649.353120,-0.482583,104146.000000,316392.000000
1653.229247,-0.454697,102337.000000,291561.000000
1656.131209,-0.443331,100118.000000,277871.000000
1659.028770,-0.443436,95076.000000,263941.000000
1661.921932,-0.435537,93881.000000,255926.000000
1664.810693,-0.437215,90392.000000,247369.000000
1667.695055,-0.444041,85969.000000,238992.000000
1670.575016,-0.445610,82225.000000,229411.000000
1674.408120,-0.434830,78925.000000,214805.000000
1677.277814,-inf,0.000000,199902.000000
1680.143108,-inf,0.000000,181479.000000
1683.004002,nan,-2147483648.000000,162926.000000
1685.860496,nan,-2147483648.000000,142893.000000
1688.712590,nan,-2147483648.000000,124668.000000
1691.560283,nan,-2147483648.000000,105500.000000
1695.350364,nan,-2147483648.000000,83765.000000
1698.187790,nan,-2147483648.000000,68932.000000
1701.020817,-inf,0.000000,58435.000000
