Method:,erol,,
Host Date-Time:,7/12/23 @ 14:12:27,,
Header Version:,1,,
System Temp (C):,40.44,,
Detector Temp (C):,27.39,,
Humidity (%):,16.55,,
Lamp PD:,3574,,
Shift Vector Coefficients:,-4.80707,0.053312,-0.000138677,,
Pixel to Wavelength Coefficients:,1763.6,-0.910608,-0.000244451,,
Serial Number:,6110061,,
Scan Config Name:,erol,,
Scan Config Type:,Slew,,
Section 1,,
Start wavelength (nm):,900,,
End wavelength (nm):,1700,,
Pattern Pixel Width (nm):,  11.71,,,,
Exposure (ms):,  0.635,,,,
Digital Resolution:,228,,
Num Repeats:,1,,
PGA Gain:,64,,
Total Measurement Time in sec:,  1.592,,
Wavelength (nm),Absorbance (AU),Reference Signal (unitless),Sample Signal (unitless)
901.370984,-0.716573,22318.000000,116206.000000
905.248306,-0.708003,26694.000000,136275.000000
909.121227,-0.699541,30240.000000,151399.000000
912.989749,-0.673019,35053.000000,165099.000000
918.140932,-0.668233,39668.000000,184788.000000
921.999187,-0.661116,44171.000000,202420.000000
925.853041,-0.656229,49463.000000,224135.000000
929.702495,-0.656377,55176.000000,250108.000000
933.547549,-0.651130,62603.000000,280366.000000
937.388203,-0.646718,70557.000000,312794.000000
941.224457,-0.640144,79215.000000,345901.000000
946.332618,-0.631976,90003.000000,385685.000000
950.158605,-0.629735,97001.000000,413534.000000
953.980191,-0.623319,104340.000000,438298.000000
957.797378,-0.620356,111157.000000,463760.000000
961.610165,-0.618446,117414.000000,487715.000000
965.418551,-0.615928,124361.000000,513585.000000
969.222537,-0.613785,131496.000000,540378.000000
974.287675,-0.609945,140925.000000,574028.000000
978.081394,-0.609151,148023.000000,601839.000000
981.870713,-0.606221,155197.000000,626765.000000
985.655632,-0.605948,162010.000000,653867.000000
989.436151,-0.601319,170019.000000,678916.000000
993.212270,-0.601556,176266.000000,704247.000000
998.240251,-0.597867,184964.000000,732748.000000
1002.006103,-0.596787,190519.000000,752879.000000
1005.767554,-0.593544,196102.000000,769177.000000
1009.524606,-0.592253,200098.000000,782520.000000
1013.277258,-0.590058,204164.000000,794397.000000
1017.025509,-0.590101,206631.000000,804074.000000
1020.769360,-0.587651,209246.000000,809670.000000
1025.754318,-0.585867,211932.000000,816702.000000
1029.487902,-0.583952,213316.000000,818419.000000
1033.217086,-0.582791,213821.000000,818165.000000
1036.941870,-0.582701,213615.000000,817208.000000
1040.662255,-0.581565,213930.000000,816275.000000
1044.378238,-0.580338,213905.000000,813877.000000
1048.089822,-0.579866,213173.000000,810211.000000
1053.031756,-0.579000,211884.000000,803707.000000
1056.733073,-0.578028,211098.000000,798936.000000
1060.429990,-0.577017,209880.000000,792480.000000
1064.122506,-0.576881,209078.000000,789204.000000
1067.810623,-0.575932,208224.000000,784265.000000
1071.494339,-0.576502,206922.000000,780384.000000
1076.399116,-0.575202,206676.000000,777127.000000
1080.072566,-0.574959,206200.000000,774904.000000
1083.741615,-0.576118,205636.000000,774850.000000
1087.406264,-0.574386,205874.000000,772658.000000
1091.066513,-0.573743,205797.000000,771226.000000
1094.722362,-0.574502,205514.000000,771514.000000
1098.373811,-0.573893,205628.000000,770859.000000
1103.235565,-0.572085,206788.000000,771988.000000
1106.876747,-0.571573,206389.000000,769591.000000
1110.513529,-0.570523,206615.000000,768573.000000
1114.145910,-0.569145,206738.000000,766594.000000
1117.773892,-0.566745,206547.000000,761664.000000
1121.397473,-0.563917,207088.000000,758704.000000
1125.016654,-0.562863,206464.000000,754583.000000
1129.835385,-0.557638,207418.000000,749005.000000
1133.444299,-0.558168,207695.000000,750921.000000
1137.048813,-0.557945,208493.000000,753419.000000
1140.648927,-0.561204,208223.000000,758110.000000
1144.244641,-0.562965,208337.000000,761607.000000
1147.835955,-0.563142,208774.000000,763516.000000
1152.617529,-0.563683,208238.000000,762506.000000
1156.198576,-0.564240,208484.000000,764386.000000
1159.775223,-0.561896,208962.000000,762015.000000
1163.347470,-0.561624,209317.000000,762832.000000
1166.915316,-0.559603,209935.000000,761532.000000
1170.478763,-0.557337,211435.000000,762981.000000
1174.037809,-0.554744,213105.000000,764430.000000
1178.776359,-0.553952,214394.000000,767653.000000
1182.325139,-0.548727,217962.000000,771094.000000
1185.869518,-0.547009,220075.000000,775496.000000
1189.409497,-0.545720,222694.000000,782400.000000
1192.945076,-0.545434,224594.000000,788556.000000
1196.476255,-0.545208,226828.000000,795985.000000
1200.003034,-0.543481,229675.000000,802776.000000
1204.698561,-0.544449,232729.000000,815267.000000
1208.215073,-0.543648,235830.000000,824608.000000
1211.727185,-0.543569,238631.000000,834249.000000
1215.234896,-0.542987,241974.000000,844803.000000
1218.738208,-0.541933,245450.000000,854862.000000
1222.237119,-0.541997,248996.000000,867339.000000
1226.895489,-0.541546,254001.000000,883856.000000
1230.384134,-0.541842,257796.000000,897674.000000
1233.868378,-0.542888,261030.000000,911126.000000
1237.348222,-0.542973,264910.000000,924851.000000
1240.823666,-0.543030,269187.000000,939905.000000
1244.294710,-0.542053,274535.000000,956424.000000
1247.761354,-0.543490,278817.000000,974562.000000
1252.376701,-0.543073,285943.000000,998511.000000
1255.833078,-0.542258,292339.000000,1018932.000000
1259.285055,-0.542255,298387.000000,1040004.000000
1262.732632,-0.542281,303484.000000,1057832.000000
1266.175808,-0.541793,308643.000000,1074607.000000
1269.614584,-0.542126,313923.000000,1093827.000000
1273.048961,-0.541484,319097.000000,1110215.000000
1277.621284,-0.542778,324380.000000,1131963.000000
1281.045394,-0.541519,329793.000000,1147521.000000
1284.465103,-0.542325,333450.000000,1162400.000000
1287.880412,-0.542147,337104.000000,1174656.000000
1291.291321,-0.542428,340768.000000,1188192.000000
1294.697830,-0.542221,344605.000000,1201000.000000
1299.232997,-0.542527,349244.000000,1218024.000000
1302.629239,-0.542095,352441.000000,1227953.000000
1306.021081,-0.541861,355144.000000,1236703.000000
1309.408522,-0.541339,357732.000000,1244220.000000
1312.791564,-0.540767,360160.000000,1251014.000000
1316.170205,-0.540931,362173.000000,1258483.000000
1319.544447,-0.539872,364403.000000,1263148.000000
1324.036591,-0.540322,366317.000000,1271097.000000
1327.400565,-0.540957,366589.000000,1273902.000000
1330.760139,-0.538899,368623.000000,1274917.000000
1334.115313,-0.539803,368498.000000,1277139.000000
1337.466087,-0.538060,370046.000000,1277367.000000
1340.812461,-0.537095,370709.000000,1276814.000000
1344.154435,-0.534479,371502.000000,1271863.000000
1348.603555,-0.531959,371615.000000,1264889.000000
1351.935262,-0.529730,370997.000000,1256319.000000
1355.262569,-0.525513,371791.000000,1246842.000000
1358.585475,-0.523906,370879.000000,1239190.000000
1361.903982,-0.521451,370539.000000,1231077.000000
1365.218088,-0.517486,371657.000000,1223569.000000
1369.630052,-0.514877,372397.000000,1218662.000000
1372.933891,-0.513095,372524.000000,1214085.000000
1376.233331,-0.511152,372314.000000,1207984.000000
1379.528370,-0.509960,371243.000000,1201207.000000
1382.819009,-0.509634,369231.000000,1193801.000000
1386.105248,-0.508810,367705.000000,1186613.000000
1389.387087,-0.506484,367073.000000,1178248.000000
1393.756027,-0.503726,365715.000000,1166456.000000
1397.027599,-0.501785,365152.000000,1159469.000000
1400.294771,-0.498490,365097.000000,1150531.000000
1403.557542,-0.494985,364333.000000,1138895.000000
1406.815914,-0.490161,365413.000000,1129652.000000
1410.069885,-0.485217,365734.000000,1117846.000000
1413.319456,-0.481574,364947.000000,1106123.000000
1417.645373,-0.474218,365539.000000,1089310.000000
1420.884678,-0.469248,365230.000000,1076006.000000
1424.119582,-0.463911,365533.000000,1063744.000000
1427.350086,-0.460928,364906.000000,1054651.000000
1430.576190,-0.456686,365583.000000,1046339.000000
1433.797894,-0.452827,365648.000000,1037266.000000
1437.015198,-0.449539,365698.000000,1029583.000000
1441.298091,-0.446191,364890.000000,1019420.000000
1444.505128,-0.443403,364741.000000,1012483.000000
1447.707765,-0.441321,364393.000000,1006680.000000
1450.906001,-0.439962,363044.000000,999818.000000
1454.099838,-0.437588,362635.000000,993249.000000
1457.289274,-0.435135,361653.000000,984979.000000
1461.535011,-0.432359,360303.000000,975051.000000
1464.714180,-0.430530,358064.000000,964918.000000
1467.888950,-0.427570,356949.000000,955381.000000
1471.059319,-0.424457,355912.000000,945801.000000
1474.225288,-0.423215,353737.000000,937336.000000
1477.386857,-0.421002,352477.000000,929251.000000
1480.544025,-0.421020,349693.000000,921950.000000
1484.746739,-0.418624,347943.000000,912289.000000
1487.893641,-0.419426,344781.000000,905668.000000
1491.036142,-0.419848,342531.000000,900633.000000
1494.174244,-0.419762,340170.000000,894249.000000
1497.307945,-0.421240,337701.000000,890783.000000
1500.437247,-0.422434,334446.000000,884626.000000
1503.562148,-0.424004,331876.000000,881009.000000
1507.721838,-0.426575,327918.000000,875669.000000
1510.836473,-0.429080,324967.000000,872810.000000
1513.946707,-0.431917,321718.000000,869745.000000
1517.052541,-0.431556,319073.000000,861878.000000
1520.153975,-0.433434,315575.000000,856124.000000
1523.251008,-0.435856,311252.000000,849119.000000
1527.373542,-0.436524,306492.000000,837419.000000
1530.460309,-0.436751,302471.000000,826866.000000
1533.542676,-0.437269,298873.000000,818004.000000
1536.620642,-0.437168,294593.000000,806102.000000
1539.694209,-0.437788,290524.000000,796105.000000
1542.763375,-0.438415,285805.000000,784305.000000
1545.828141,-0.438039,281854.000000,772793.000000
1549.907652,-0.440374,274841.000000,757627.000000
1552.962151,-0.439848,270515.000000,744799.000000
1556.012250,-0.441837,265203.000000,733526.000000
1559.057949,-0.442853,260042.000000,720936.000000
1562.099248,-0.441951,255973.000000,708182.000000
1565.136147,-0.442845,250523.000000,694532.000000
1568.168646,-0.444004,245616.000000,682749.000000
1572.205133,-0.444160,238774.000000,663968.000000
1575.227365,-0.444187,234179.000000,651231.000000
1578.245196,-0.445776,228934.000000,638978.000000
1581.258628,-0.446396,223478.000000,624641.000000
1584.267659,-0.448253,218239.000000,612612.000000
1587.272290,-0.448433,213357.000000,599156.000000
1591.271621,-0.450038,206678.000000,582549.000000
1594.265985,-0.453245,200655.000000,569764.000000
1597.255949,-0.454565,196105.000000,558539.000000
1600.241513,-0.456783,191413.000000,547967.000000
1603.222677,-0.458879,186271.000000,535827.000000
1606.199441,-0.458356,181567.000000,521667.000000
1609.171805,-0.459106,176656.000000,508434.000000
1613.128112,-0.460955,170106.000000,491671.000000
1616.090209,-0.463193,165195.000000,479943.000000
1619.047905,-0.462664,160661.000000,466202.000000
1622.001202,-0.468021,154762.000000,454658.000000
1624.950098,-0.471704,149284.000000,442300.000000
1627.894595,-0.472073,144304.000000,427909.000000
1630.834691,-0.475230,138573.000000,413913.000000
1634.747975,-0.476942,131373.000000,393956.000000
1637.677804,-0.474067,126061.000000,375533.000000
1640.603233,-0.474008,120043.000000,357557.000000
1643.524262,-0.473321,114222.000000,339681.000000
1646.440891,-0.467631,109595.000000,321678.000000
1649.353120,-0.464274,104146.000000,303331.000000
1653.229247,-0.439494,102337.000000,281531.000000
1656.131209,-0.426479,100118.000000,267295.000000
1659.028770,-0.429261,95076.000000,255465.000000
1661.921932,-0.417092,93881.000000,245284.000000
1664.810693,-0.422413,90392.000000,239080.000000
1667.695055,-0.428240,85969.000000,230453.000000
1670.575016,-0.429269,82225.000000,220939.000000
1674.408120,-0.412477,78925.000000,204029.000000
1677.277814,-inf,0.000000,190176.000000
1680.143108,-inf,0.000000,173724.000000
1683.004002,nan,-2147483648.000000,155256.000000
1685.860496,nan,-2147483648.000000,136528.000000
1688.712590,nan,-2147483648.000000,117610.000000
1691.560283,nan,-2147483648.000000,99954.000000
1695.350364,nan,-2147483648.000000,79442.000000
1698.187790,nan,-2147483648.000000,66761.000000
1701.020817,-inf,0.000000,55321.000000
