Method:,erol,,
Host Date-Time:,7/12/23 @ 14:13:21,,
Header Version:,1,,
System Temp (C):,40.67,,
Detector Temp (C):,26.87,,
Humidity (%):,16.36,,
Lamp PD:,3555,,
Shift Vector Coefficients:,-4.80707,0.053312,-0.000138677,,
Pixel to Wavelength Coefficients:,1763.6,-0.910608,-0.000244451,,
Serial Number:,6110061,,
Scan Config Name:,erol,,
Scan Config Type:,Slew,,
Section 1,,
Start wavelength (nm):,900,,
End wavelength (nm):,1700,,
Pattern Pixel Width (nm):,  11.71,,,,
Exposure (ms):,  0.635,,,,
Digital Resolution:,228,,
Num Repeats:,1,,
PGA Gain:,64,,
Total Measurement Time in sec:,  1.591,,
Wavelength (nm),Absorbance (AU),Reference Signal (unitless),Sample Signal (unitless)
901.370984,-0.691828,22318.000000,109770.000000
905.248306,-0.675848,26694.000000,126550.000000
909.121227,-0.671768,30240.000000,142020.000000
912.989749,-0.647873,35053.000000,155811.000000
918.140932,-0.643917,39668.000000,174726.000000
921.999187,-0.636487,44171.000000,191260.000000
925.853041,-0.630820,49463.000000,211398.000000
929.702495,-0.629685,55176.000000,235199.000000
933.547549,-0.624092,62603.000000,263443.000000
937.388203,-0.619436,70557.000000,293749.000000
941.224457,-0.611271,79215.000000,323652.000000
946.332618,-0.603651,90003.000000,361333.000000
950.158605,-0.600445,97001.000000,386564.000000
953.980191,-0.595421,104340.000000,411028.000000
957.797378,-0.590234,111157.000000,432684.000000
961.610165,-0.588214,117414.000000,454919.000000
965.418551,-0.584004,124361.000000,477187.000000
969.222537,-0.580169,131496.000000,500129.000000
974.287675,-0.576617,140925.000000,531625.000000
978.081394,-0.573827,148023.000000,554825.000000
981.870713,-0.571518,155197.000000,578630.000000
985.655632,-0.569972,162010.000000,601886.000000
989.436151,-0.564873,170019.000000,624267.000000
993.212270,-0.563555,176266.000000,645244.000000
998.240251,-0.560433,184964.000000,672234.000000
1002.006103,-0.558712,190519.000000,689684.000000
1005.767554,-0.555057,196102.000000,703946.000000
1009.524606,-0.553903,200098.000000,716383.000000
1013.277258,-0.551167,204164.000000,726351.000000
1017.025509,-0.550656,206631.000000,734262.000000
1020.769360,-0.549027,209246.000000,740771.000000
1025.754318,-0.546161,211932.000000,745345.000000
1029.487902,-0.544267,213316.000000,746948.000000
1033.217086,-0.543885,213821.000000,748059.000000
1036.941870,-0.544047,213615.000000,747616.000000
1040.662255,-0.542825,213930.000000,746615.000000
1044.378238,-0.540226,213905.000000,742073.000000
1048.089822,-0.539845,213173.000000,738885.000000
1053.031756,-0.539247,211884.000000,733408.000000
1056.733073,-0.538827,211098.000000,729980.000000
1060.429990,-0.538079,209880.000000,724519.000000
1064.122506,-0.536725,209078.000000,719504.000000
1067.810623,-0.536713,208224.000000,716546.000000
1071.494339,-0.536772,206922.000000,712161.000000
1076.399116,-0.535074,206676.000000,708540.000000
1080.072566,-0.535333,206200.000000,707329.000000
1083.741615,-0.535712,205636.000000,706011.000000
1087.406264,-0.534623,205874.000000,705058.000000
1091.066513,-0.534067,205797.000000,703892.000000
1094.722362,-0.535749,205514.000000,705652.000000
1098.373811,-0.534400,205628.000000,703853.000000
1103.235565,-0.532742,206788.000000,705127.000000
1106.876747,-0.533130,206389.000000,704396.000000
1110.513529,-0.531810,206615.000000,703026.000000
1114.145910,-0.530342,206738.000000,701072.000000
1117.773892,-0.528995,206547.000000,698254.000000
1121.397473,-0.523836,207088.000000,691816.000000
1125.016654,-0.522778,206464.000000,688054.000000
1129.835385,-0.518869,207418.000000,685040.000000
1133.444299,-0.518728,207695.000000,685732.000000
1137.048813,-0.519358,208493.000000,689366.000000
1140.648927,-0.522357,208223.000000,693243.000000
1144.244641,-0.524468,208337.000000,697003.000000
1147.835955,-0.525262,208774.000000,699743.000000
1152.617529,-0.526366,208238.000000,699722.000000
1156.198576,-0.525803,208484.000000,699641.000000
1159.775223,-0.524999,208962.000000,699949.000000
1163.347470,-0.523665,209317.000000,698987.000000
1166.915316,-0.523209,209935.000000,700316.000000
1170.478763,-0.520762,211435.000000,701356.000000
1174.037809,-0.517912,213105.000000,702272.000000
1178.776359,-0.517146,214394.000000,705276.000000
1182.325139,-0.511555,217962.000000,707841.000000
1185.869518,-0.510588,220075.000000,713113.000000
1189.409497,-0.509264,222694.000000,719404.000000
1192.945076,-0.508608,224594.000000,724446.000000
1196.476255,-0.508034,226828.000000,730685.000000
1200.003034,-0.506726,229675.000000,737632.000000
1204.698561,-0.507322,232729.000000,748467.000000
1208.215073,-0.506797,235830.000000,757524.000000
1211.727185,-0.507385,238631.000000,767559.000000
1215.234896,-0.506014,241974.000000,775859.000000
1218.738208,-0.504661,245450.000000,784556.000000
1222.237119,-0.504301,248996.000000,795232.000000
1226.895489,-0.504373,254001.000000,811350.000000
1230.384134,-0.503622,257796.000000,822050.000000
1233.868378,-0.504192,261030.000000,833455.000000
1237.348222,-0.505244,264910.000000,847895.000000
1240.823666,-0.505570,269187.000000,862231.000000
1244.294710,-0.504347,274535.000000,876890.000000
1247.761354,-0.505484,278817.000000,892900.000000
1252.376701,-0.505238,285943.000000,915203.000000
1255.833078,-0.504675,292339.000000,934462.000000
1259.285055,-0.503713,298387.000000,951685.000000
1262.732632,-0.504659,303484.000000,970051.000000
1266.175808,-0.503931,308643.000000,984890.000000
1269.614584,-0.503528,313923.000000,1000809.000000
1273.048961,-0.502959,319097.000000,1015972.000000
1277.621284,-0.504252,324380.000000,1035873.000000
1281.045394,-0.502928,329793.000000,1049953.000000
1284.465103,-0.503260,333450.000000,1062407.000000
1287.880412,-0.504044,337104.000000,1075990.000000
1291.291321,-0.503817,340768.000000,1087116.000000
1294.697830,-0.504233,344605.000000,1100411.000000
1299.232997,-0.504334,349244.000000,1115482.000000
1302.629239,-0.503530,352441.000000,1123611.000000
1306.021081,-0.503898,355144.000000,1133189.000000
1309.408522,-0.502567,357732.000000,1137953.000000
1312.791564,-0.502163,360160.000000,1144612.000000
1316.170205,-0.502154,362173.000000,1150987.000000
1319.544447,-0.501810,364403.000000,1157156.000000
1324.036591,-0.501383,366317.000000,1162091.000000
1327.400565,-0.502455,366589.000000,1165828.000000
1330.760139,-0.500622,368623.000000,1167360.000000
1334.115313,-0.501496,368498.000000,1169314.000000
1337.466087,-0.499214,370046.000000,1168073.000000
1340.812461,-0.497951,370709.000000,1166768.000000
1344.154435,-0.495446,371502.000000,1162537.000000
1348.603555,-0.492707,371615.000000,1155581.000000
1351.935262,-0.490313,370997.000000,1147318.000000
1355.262569,-0.485043,371791.000000,1135905.000000
1358.585475,-0.482613,370879.000000,1126795.000000
1361.903982,-0.479602,370539.000000,1117985.000000
1365.218088,-0.476400,371657.000000,1113122.000000
1369.630052,-0.472541,372397.000000,1105470.000000
1372.933891,-0.471088,372524.000000,1102153.000000
1376.233331,-0.469741,372314.000000,1098122.000000
1379.528370,-0.468700,371243.000000,1092341.000000
1382.819009,-0.467574,369231.000000,1083609.000000
1386.105248,-0.466825,367705.000000,1077270.000000
1389.387087,-0.464701,367073.000000,1070172.000000
1393.756027,-0.462459,365715.000000,1060723.000000
1397.027599,-0.459155,365152.000000,1051063.000000
1400.294771,-0.455506,365097.000000,1042112.000000
1403.557542,-0.452081,364333.000000,1031762.000000
1406.815914,-0.446844,365413.000000,1022417.000000
1410.069885,-0.441333,365734.000000,1010411.000000
1413.319456,-0.437161,364947.000000,998598.000000
1417.645373,-0.428071,365539.000000,979501.000000
1420.884678,-0.423243,365230.000000,967852.000000
1424.119582,-0.418111,365533.000000,957278.000000
1427.350086,-0.413827,364906.000000,946255.000000
1430.576190,-0.408915,365583.000000,937349.000000
1433.797894,-0.405518,365648.000000,930211.000000
1437.015198,-0.400701,365698.000000,920076.000000
1441.298091,-0.398076,364890.000000,912510.000000
1444.505128,-0.395366,364741.000000,906465.000000
1447.707765,-0.392591,364393.000000,899832.000000
1450.906001,-0.390992,363044.000000,893205.000000
1454.099838,-0.388981,362635.000000,888078.000000
1457.289274,-0.386296,361653.000000,880214.000000
1461.535011,-0.383047,360303.000000,870391.000000
1464.714180,-0.381597,358064.000000,862100.000000
1467.888950,-0.378503,356949.000000,853315.000000
1471.059319,-0.375417,355912.000000,844811.000000
1474.225288,-0.373309,353737.000000,835583.000000
1477.386857,-0.371053,352477.000000,828293.000000
1480.544025,-0.370930,349693.000000,821518.000000
1484.746739,-0.368980,347943.000000,813745.000000
1487.893641,-0.369873,344781.000000,808009.000000
1491.036142,-0.369817,342531.000000,802632.000000
1494.174244,-0.370671,340170.000000,798670.000000
1497.307945,-0.371629,337701.000000,794623.000000
1500.437247,-0.373016,334446.000000,789482.000000
1503.562148,-0.375034,331876.000000,787063.000000
1507.721838,-0.377782,327918.000000,782613.000000
1510.836473,-0.379703,324967.000000,779009.000000
1513.946707,-0.381700,321718.000000,774774.000000
1517.052541,-0.382548,319073.000000,769906.000000
1520.153975,-0.384216,315575.000000,764396.000000
1523.251008,-0.386188,311252.000000,757357.000000
1527.373542,-0.387095,306492.000000,747333.000000
1530.460309,-0.387352,302471.000000,737965.000000
1533.542676,-0.387406,298873.000000,729277.000000
1536.620642,-0.387434,294593.000000,718880.000000
1539.694209,-0.387176,290524.000000,708529.000000
1542.763375,-0.388947,285805.000000,699869.000000
1545.828141,-0.388208,281854.000000,689020.000000
1549.907652,-0.389745,274841.000000,674259.000000
1552.962151,-0.389864,270515.000000,663827.000000
1556.012250,-0.391237,265203.000000,652853.000000
1559.057949,-0.392198,260042.000000,641566.000000
1562.099248,-0.391548,255973.000000,630583.000000
1565.136147,-0.392644,250523.000000,618717.000000
1568.168646,-0.392590,245616.000000,606522.000000
1572.205133,-0.393537,238774.000000,590914.000000
1575.227365,-0.393420,234179.000000,579386.000000
1578.245196,-0.393445,228934.000000,566442.000000
1581.258628,-0.396565,223478.000000,556929.000000
1584.267659,-0.397050,218239.000000,544480.000000
1587.272290,-0.396610,213357.000000,531761.000000
1591.271621,-0.398304,206678.000000,517128.000000
1594.265985,-0.402094,200655.000000,506459.000000
1597.255949,-0.402952,196105.000000,495953.000000
1600.241513,-0.403179,191413.000000,484340.000000
1603.222677,-0.404982,186271.000000,473290.000000
1606.199441,-0.406692,181567.000000,463158.000000
1609.171805,-0.407865,176656.000000,451849.000000
1613.128112,-0.408551,170106.000000,435783.000000
1616.090209,-0.410936,165195.000000,425533.000000
1619.047905,-0.411105,160661.000000,414014.000000
1622.001202,-0.415636,154762.000000,402996.000000
1624.950098,-0.417514,149284.000000,390416.000000
1627.894595,-0.419846,144304.000000,379424.000000
1630.834691,-0.421874,138573.000000,366060.000000
1634.747975,-0.424927,131373.000000,349489.000000
1637.677804,-0.421712,126061.000000,332884.000000
1640.603233,-0.422479,120043.000000,317553.000000
1643.524262,-0.420824,114222.000000,301005.000000
1646.440891,-0.413436,109595.000000,283940.000000
1649.353120,-0.411085,104146.000000,268366.000000
1653.229247,-0.385133,102337.000000,248408.000000
1656.131209,-0.373690,100118.000000,236702.000000
1659.028770,-0.374173,95076.000000,225032.000000
1661.921932,-0.362129,93881.000000,216126.000000
1664.810693,-0.365665,90392.000000,209795.000000
1667.695055,-0.371757,85969.000000,202348.000000
1670.575016,-0.372018,82225.000000,193652.000000
1674.408120,-0.357507,78925.000000,179772.000000
1677.277814,-inf,0.000000,166547.000000
1680.143108,-inf,0.000000,152182.000000
1683.004002,nan,-2147483648.000000,136529.000000
1685.860496,nan,-2147483648.000000,119483.000000
1688.712590,nan,-2147483648.000000,103075.000000
1691.560283,nan,-2147483648.000000,87152.000000
1695.350364,nan,-2147483648.000000,69052.000000
1698.187790,nan,-2147483648.000000,57094.000000
1701.020817,-inf,0.000000,47693.000000
