Method:,erol,,
Host Date-Time:,7/12/23 @ 14:12:22,,
Header Version:,1,,
System Temp (C):,40.41,,
Detector Temp (C):,26.98,,
Humidity (%):,16.66,,
Lamp PD:,3565,,
Shift Vector Coefficients:,-4.80707,0.053312,-0.000138677,,
Pixel to Wavelength Coefficients:,1763.6,-0.910608,-0.000244451,,
Serial Number:,6110061,,
Scan Config Name:,erol,,
Scan Config Type:,Slew,,
Section 1,,
Start wavelength (nm):,900,,
End wavelength (nm):,1700,,
Pattern Pixel Width (nm):,  11.71,,,,
Exposure (ms):,  0.635,,,,
Digital Resolution:,228,,
Num Repeats:,1,,
PGA Gain:,64,,
Total Measurement Time in sec:,  1.643,,
Wavelength (nm),Absorbance (AU),Reference Signal (unitless),Sample Signal (unitless)
901.370984,-0.391399,22318.000000,54961.000000
905.248306,-0.377194,26694.000000,63622.000000
909.121227,-0.367570,30240.000000,70494.000000
912.989749,-0.339373,35053.000000,76577.000000
918.140932,-0.339614,39668.000000,86707.000000
921.999187,-0.331337,44171.000000,94727.000000
925.853041,-0.320819,49463.000000,103538.000000
929.702495,-0.322592,55176.000000,115969.000000
933.547549,-0.318113,62603.000000,130229.000000
937.388203,-0.315223,70557.000000,145802.000000
941.224457,-0.307776,79215.000000,160910.000000
946.332618,-0.302567,90003.000000,180644.000000
950.158605,-0.301558,97001.000000,194238.000000
953.980191,-0.292943,104340.000000,204830.000000
957.797378,-0.290449,111157.000000,216963.000000
961.610165,-0.289335,117414.000000,228589.000000
965.418551,-0.286859,124361.000000,240737.000000
969.222537,-0.283185,131496.000000,252405.000000
974.287675,-0.282289,140925.000000,269946.000000
978.081394,-0.280811,148023.000000,282579.000000
981.870713,-0.279380,155197.000000,295300.000000
985.655632,-0.279444,162010.000000,308309.000000
989.436151,-0.274207,170019.000000,319672.000000
993.212270,-0.274886,176266.000000,331936.000000
998.240251,-0.272760,184964.000000,346615.000000
1002.006103,-0.270860,190519.000000,355466.000000
1005.767554,-0.268118,196102.000000,363580.000000
1009.524606,-0.269180,200098.000000,371897.000000
1013.277258,-0.266848,204164.000000,377422.000000
1017.025509,-0.266416,206631.000000,381603.000000
1020.769360,-0.264334,209246.000000,384584.000000
1025.754318,-0.264192,211932.000000,389393.000000
1029.487902,-0.262075,213316.000000,390030.000000
1033.217086,-0.263168,213821.000000,391939.000000
1036.941870,-0.262566,213615.000000,391019.000000
1040.662255,-0.261261,213930.000000,390421.000000
1044.378238,-0.259197,213905.000000,388524.000000
1048.089822,-0.259657,213173.000000,387605.000000
1053.031756,-0.258147,211884.000000,383924.000000
1056.733073,-0.258277,211098.000000,382614.000000
1060.429990,-0.257645,209880.000000,379853.000000
1064.122506,-0.258338,209078.000000,379006.000000
1067.810623,-0.257730,208224.000000,376930.000000
1071.494339,-0.257789,206922.000000,374624.000000
1076.399116,-0.255296,206676.000000,372037.000000
1080.072566,-0.256453,206200.000000,372170.000000
1083.741615,-0.256164,205636.000000,370905.000000
1087.406264,-0.257409,205874.000000,372401.000000
1091.066513,-0.253427,205797.000000,368864.000000
1094.722362,-0.255848,205514.000000,370416.000000
1098.373811,-0.255145,205628.000000,370022.000000
1103.235565,-0.252766,206788.000000,370076.000000
1106.876747,-0.252191,206389.000000,368874.000000
1110.513529,-0.250769,206615.000000,368070.000000
1114.145910,-0.249330,206738.000000,367071.000000
1117.773892,-0.246739,206547.000000,364551.000000
1121.397473,-0.242440,207088.000000,361905.000000
1125.016654,-0.240515,206464.000000,359219.000000
1129.835385,-0.234421,207418.000000,355850.000000
1133.444299,-0.234908,207695.000000,356725.000000
1137.048813,-0.233876,208493.000000,357246.000000
1140.648927,-0.238445,208223.000000,360557.000000
1144.244641,-0.239834,208337.000000,361910.000000
1147.835955,-0.240922,208774.000000,363579.000000
1152.617529,-0.241970,208238.000000,363521.000000
1156.198576,-0.240129,208484.000000,362411.000000
1159.775223,-0.238164,208962.000000,361602.000000
1163.347470,-0.235638,209317.000000,360116.000000
1166.915316,-0.233804,209935.000000,359657.000000
1170.478763,-0.232409,211435.000000,361065.000000
1174.037809,-0.229465,213105.000000,361459.000000
1178.776359,-0.226671,214394.000000,361313.000000
1182.325139,-0.221600,217962.000000,363062.000000
1185.869518,-0.221208,220075.000000,366251.000000
1189.409497,-0.218890,222694.000000,368637.000000
1192.945076,-0.219256,224594.000000,372095.000000
1196.476255,-0.217196,226828.000000,374018.000000
1200.003034,-0.217709,229675.000000,379160.000000
1204.698561,-0.217827,232729.000000,384306.000000
1208.215073,-0.216488,235830.000000,388228.000000
1211.727185,-0.216380,238631.000000,392742.000000
1215.234896,-0.216210,241974.000000,398088.000000
1218.738208,-0.215690,245450.000000,403323.000000
1222.237119,-0.215998,248996.000000,409440.000000
1226.895489,-0.215651,254001.000000,417337.000000
1230.384134,-0.215822,257796.000000,423739.000000
1233.868378,-0.216815,261030.000000,430037.000000
1237.348222,-0.218603,264910.000000,438229.000000
1240.823666,-0.217959,269187.000000,444645.000000
1244.294710,-0.217843,274535.000000,453357.000000
1247.761354,-0.219396,278817.000000,462078.000000
1252.376701,-0.219713,285943.000000,474234.000000
1255.833078,-0.218960,292339.000000,484002.000000
1259.285055,-0.218379,298387.000000,493354.000000
1262.732632,-0.220228,303484.000000,503923.000000
1266.175808,-0.219767,308643.000000,511945.000000
1269.614584,-0.219818,313923.000000,520764.000000
1273.048961,-0.219821,319097.000000,529351.000000
1277.621284,-0.221274,324380.000000,539918.000000
1281.045394,-0.219751,329793.000000,547006.000000
1284.465103,-0.221491,333450.000000,555293.000000
1287.880412,-0.223243,337104.000000,563646.000000
1291.291321,-0.222569,340768.000000,568890.000000
1294.697830,-0.222563,344605.000000,575287.000000
1299.232997,-0.223343,349244.000000,584079.000000
1302.629239,-0.223533,352441.000000,589684.000000
1306.021081,-0.223285,355144.000000,593868.000000
1309.408522,-0.222629,357732.000000,597292.000000
1312.791564,-0.222028,360160.000000,600515.000000
1316.170205,-0.221940,362173.000000,603749.000000
1319.544447,-0.221455,364403.000000,606788.000000
1324.036591,-0.220901,366317.000000,609197.000000
1327.400565,-0.222258,366589.000000,611558.000000
1330.760139,-0.219982,368623.000000,611736.000000
1334.115313,-0.220224,368498.000000,611870.000000
1337.466087,-0.217515,370046.000000,610620.000000
1340.812461,-0.216755,370709.000000,610644.000000
1344.154435,-0.214115,371502.000000,608241.000000
1348.603555,-0.209617,371615.000000,602157.000000
1351.935262,-0.207231,370997.000000,597862.000000
1355.262569,-0.202603,371791.000000,592791.000000
1358.585475,-0.200266,370879.000000,588164.000000
1361.903982,-0.197644,370539.000000,584087.000000
1365.218088,-0.193154,371657.000000,579824.000000
1369.630052,-0.189996,372397.000000,576769.000000
1372.933891,-0.188746,372524.000000,575308.000000
1376.233331,-0.187129,372314.000000,572846.000000
1379.528370,-0.185146,371243.000000,568596.000000
1382.819009,-0.184332,369231.000000,564456.000000
1386.105248,-0.183277,367705.000000,560759.000000
1389.387087,-0.181036,367073.000000,556914.000000
1393.756027,-0.178135,365715.000000,551160.000000
1397.027599,-0.175797,365152.000000,547357.000000
1400.294771,-0.172071,365097.000000,542599.000000
1403.557542,-0.168474,364333.000000,536998.000000
1406.815914,-0.162371,365413.000000,531074.000000
1410.069885,-0.157915,365734.000000,526114.000000
1413.319456,-0.153040,364947.000000,519122.000000
1417.645373,-0.144421,365539.000000,509747.000000
1420.884678,-0.140013,365230.000000,504173.000000
1424.119582,-0.134639,365533.000000,498386.000000
1427.350086,-0.130146,364906.000000,492410.000000
1430.576190,-0.125546,365583.000000,488126.000000
1433.797894,-0.121730,365648.000000,483942.000000
1437.015198,-0.117617,365698.000000,479446.000000
1441.298091,-0.114086,364890.000000,474513.000000
1444.505128,-0.112665,364741.000000,472770.000000
1447.707765,-0.108890,364393.000000,468231.000000
1450.906001,-0.108740,363044.000000,466336.000000
1454.099838,-0.105622,362635.000000,462479.000000
1457.289274,-0.102351,361653.000000,457766.000000
1461.535011,-0.098359,360303.000000,451884.000000
1464.714180,-0.098409,358064.000000,449128.000000
1467.888950,-0.094423,356949.000000,443638.000000
1471.059319,-0.091831,355912.000000,439717.000000
1474.225288,-0.090354,353737.000000,435546.000000
1477.386857,-0.087688,352477.000000,431339.000000
1480.544025,-0.087277,349693.000000,427527.000000
1484.746739,-0.086430,347943.000000,424559.000000
1487.893641,-0.086720,344781.000000,420982.000000
1491.036142,-0.087886,342531.000000,419359.000000
1494.174244,-0.086945,340170.000000,415567.000000
1497.307945,-0.087486,337701.000000,413065.000000
1500.437247,-0.090084,334446.000000,411538.000000
1503.562148,-0.091911,331876.000000,410097.000000
1507.721838,-0.094762,327918.000000,407875.000000
1510.836473,-0.097987,324967.000000,407217.000000
1513.946707,-0.100691,321718.000000,405664.000000
1517.052541,-0.100093,319073.000000,401775.000000
1520.153975,-0.103386,315575.000000,400395.000000
1523.251008,-0.105642,311252.000000,396967.000000
1527.373542,-0.105019,306492.000000,390336.000000
1530.460309,-0.106724,302471.000000,386730.000000
1533.542676,-0.106175,298873.000000,381647.000000
1536.620642,-0.107193,294593.000000,377064.000000
1539.694209,-0.106187,290524.000000,370996.000000
1542.763375,-0.108017,285805.000000,366511.000000
1545.828141,-0.108766,281854.000000,362068.000000
1549.907652,-0.110438,274841.000000,354421.000000
1552.962151,-0.109035,270515.000000,347717.000000
1556.012250,-0.110729,265203.000000,342222.000000
1559.057949,-0.113378,260042.000000,337615.000000
1562.099248,-0.112154,255973.000000,331397.000000
1565.136147,-0.113364,250523.000000,325246.000000
1568.168646,-0.114356,245616.000000,319604.000000
1572.205133,-0.115733,238774.000000,311688.000000
1575.227365,-0.115048,234179.000000,305208.000000
1578.245196,-0.115378,228934.000000,298599.000000
1581.258628,-0.119284,223478.000000,294116.000000
1584.267659,-0.120721,218239.000000,288173.000000
1587.272290,-0.122087,213357.000000,282614.000000
1591.271621,-0.122532,206678.000000,274048.000000
1594.265985,-0.126090,200655.000000,268250.000000
1597.255949,-0.126536,196105.000000,262437.000000
1600.241513,-0.127833,191413.000000,256924.000000
1603.222677,-0.132788,186271.000000,252891.000000
1606.199441,-0.131103,181567.000000,245550.000000
1609.171805,-0.133314,176656.000000,240128.000000
1613.128112,-0.133824,170106.000000,231496.000000
1616.090209,-0.138044,165195.000000,227008.000000
1619.047905,-0.137807,160661.000000,220657.000000
1622.001202,-0.141801,154762.000000,214519.000000
1624.950098,-0.148425,149284.000000,210106.000000
1627.894595,-0.148936,144304.000000,203336.000000
1630.834691,-0.151191,138573.000000,196277.000000
1634.747975,-0.154106,131373.000000,187332.000000
1637.677804,-0.151473,126061.000000,178671.000000
1640.603233,-0.154557,120043.000000,171354.000000
1643.524262,-0.147528,114222.000000,160427.000000
1646.440891,-0.143781,109595.000000,152606.000000
1649.353120,-0.138549,104146.000000,143282.000000
1653.229247,-0.116628,102337.000000,133863.000000
1656.131209,-0.100509,100118.000000,126189.000000
1659.028770,-0.106352,95076.000000,121457.000000
1661.921932,-0.099290,93881.000000,117996.000000
1664.810693,-0.097559,90392.000000,113159.000000
1667.695055,-0.106593,85969.000000,109884.000000
1670.575016,-0.111770,82225.000000,106359.000000
1674.408120,-0.098170,78925.000000,98943.000000
1677.277814,-inf,0.000000,90731.000000
1680.143108,-inf,0.000000,81018.000000
1683.004002,nan,-2147483648.000000,75215.000000
1685.860496,nan,-2147483648.000000,65327.000000
1688.712590,nan,-2147483648.000000,56987.000000
1691.560283,nan,-2147483648.000000,47970.000000
1695.350364,nan,-2147483648.000000,37870.000000
1698.187790,nan,-2147483648.000000,31836.000000
1701.020817,-inf,0.000000,27014.000000
