Method:,erol,,
Host Date-Time:,7/12/23 @ 14:13:58,,
Header Version:,1,,
System Temp (C):,40.78,,
Detector Temp (C):,26.45,,
Humidity (%):,16.37,,
Lamp PD:,3550,,
Shift Vector Coefficients:,-4.80707,0.053312,-0.000138677,,
Pixel to Wavelength Coefficients:,1763.6,-0.910608,-0.000244451,,
Serial Number:,6110061,,
Scan Config Name:,erol,,
Scan Config Type:,Slew,,
Section 1,,
Start wavelength (nm):,900,,
End wavelength (nm):,1700,,
Pattern Pixel Width (nm):,  11.71,,,,
Exposure (ms):,  0.635,,,,
Digital Resolution:,228,,
Num Repeats:,1,,
PGA Gain:,64,,
Total Measurement Time in sec:,  1.591,,
Wavelength (nm),Absorbance (AU),Reference Signal (unitless),Sample Signal (unitless)
901.370984,-0.669396,22318.000000,104244.000000
905.248306,-0.659262,26694.000000,121808.000000
909.121227,-0.650876,30240.000000,135350.000000
912.989749,-0.621578,35053.000000,146657.000000
918.140932,-0.616912,39668.000000,164192.000000
921.999187,-0.606219,44171.000000,178384.000000
925.853041,-0.602694,49463.000000,198141.000000
929.702495,-0.601745,55176.000000,220544.000000
933.547549,-0.599459,62603.000000,248917.000000
937.388203,-0.593435,70557.000000,276678.000000
941.224457,-0.587464,79215.000000,306388.000000
946.332618,-0.579092,90003.000000,341467.000000
950.158605,-0.574311,97001.000000,363988.000000
953.980191,-0.569361,104340.000000,387090.000000
957.797378,-0.567438,111157.000000,410558.000000
961.610165,-0.563721,117414.000000,429973.000000
965.418551,-0.561237,124361.000000,452815.000000
969.222537,-0.556686,131496.000000,473804.000000
974.287675,-0.553527,140925.000000,504098.000000
978.081394,-0.552404,148023.000000,528121.000000
981.870713,-0.550942,155197.000000,551856.000000
985.655632,-0.548789,162010.000000,573232.000000
989.436151,-0.544615,170019.000000,595816.000000
993.212270,-0.543547,176266.000000,616191.000000
998.240251,-0.540513,184964.000000,642097.000000
1002.006103,-0.540033,190519.000000,660650.000000
1005.767554,-0.535803,196102.000000,673418.000000
1009.524606,-0.535908,200098.000000,687307.000000
1013.277258,-0.531745,204164.000000,694583.000000
1017.025509,-0.532330,206631.000000,703924.000000
1020.769360,-0.530098,209246.000000,709178.000000
1025.754318,-0.528433,211932.000000,715533.000000
1029.487902,-0.526335,213316.000000,716735.000000
1033.217086,-0.525649,213821.000000,717298.000000
1036.941870,-0.525340,213615.000000,716097.000000
1040.662255,-0.524336,213930.000000,715496.000000
1044.378238,-0.523197,213905.000000,713539.000000
1048.089822,-0.522261,213173.000000,709567.000000
1053.031756,-0.521875,211884.000000,704649.000000
1056.733073,-0.521111,211098.000000,700801.000000
1060.429990,-0.520894,209880.000000,696410.000000
1064.122506,-0.518972,209078.000000,690685.000000
1067.810623,-0.518669,208224.000000,687385.000000
1071.494339,-0.519251,206922.000000,684003.000000
1076.399116,-0.517858,206676.000000,681002.000000
1080.072566,-0.517934,206200.000000,679552.000000
1083.741615,-0.517574,205636.000000,677132.000000
1087.406264,-0.517492,205874.000000,677787.000000
1091.066513,-0.517444,205797.000000,677459.000000
1094.722362,-0.517800,205514.000000,677082.000000
1098.373811,-0.518130,205628.000000,677972.000000
1103.235565,-0.515714,206788.000000,678015.000000
1106.876747,-0.515901,206389.000000,676999.000000
1110.513529,-0.515232,206615.000000,676696.000000
1114.145910,-0.512995,206738.000000,673620.000000
1117.773892,-0.512134,206547.000000,671666.000000
1121.397473,-0.507806,207088.000000,666747.000000
1125.016654,-0.505702,206464.000000,661525.000000
1129.835385,-0.501990,207418.000000,658925.000000
1133.444299,-0.501129,207695.000000,658499.000000
1137.048813,-0.501666,208493.000000,661847.000000
1140.648927,-0.504814,208223.000000,665798.000000
1144.244641,-0.507780,208337.000000,670728.000000
1147.835955,-0.506712,208774.000000,670484.000000
1152.617529,-0.509040,208238.000000,672357.000000
1156.198576,-0.508563,208484.000000,672413.000000
1159.775223,-0.506437,208962.000000,670663.000000
1163.347470,-0.505624,209317.000000,670546.000000
1166.915316,-0.503211,209935.000000,668799.000000
1170.478763,-0.501734,211435.000000,671291.000000
1174.037809,-0.498212,213105.000000,671129.000000
1178.776359,-0.497315,214394.000000,673795.000000
1182.325139,-0.492268,217962.000000,677094.000000
1185.869518,-0.490287,220075.000000,680547.000000
1189.409497,-0.489440,222694.000000,687304.000000
1192.945076,-0.488535,224594.000000,691725.000000
1196.476255,-0.488186,226828.000000,698044.000000
1200.003034,-0.487317,229675.000000,705393.000000
1204.698561,-0.488011,232729.000000,715915.000000
1208.215073,-0.487222,235830.000000,724138.000000
1211.727185,-0.487491,238631.000000,733193.000000
1215.234896,-0.486526,241974.000000,741814.000000
1218.738208,-0.486120,245450.000000,751767.000000
1222.237119,-0.486120,248996.000000,762627.000000
1226.895489,-0.485023,254001.000000,775994.000000
1230.384134,-0.485080,257796.000000,787692.000000
1233.868378,-0.486015,261030.000000,799292.000000
1237.348222,-0.486432,264910.000000,811952.000000
1240.823666,-0.487042,269187.000000,826221.000000
1244.294710,-0.485615,274535.000000,839871.000000
1247.761354,-0.486630,278817.000000,854966.000000
1252.376701,-0.488029,285943.000000,879647.000000
1255.833078,-0.486942,292339.000000,897074.000000
1259.285055,-0.486054,298387.000000,913764.000000
1262.732632,-0.486736,303484.000000,930833.000000
1266.175808,-0.486968,308643.000000,947163.000000
1269.614584,-0.486463,313923.000000,962247.000000
1273.048961,-0.485261,319097.000000,975403.000000
1277.621284,-0.486868,324380.000000,995226.000000
1281.045394,-0.485550,329793.000000,1008769.000000
1284.465103,-0.486520,333450.000000,1022234.000000
1287.880412,-0.486778,337104.000000,1034051.000000
1291.291321,-0.487887,340768.000000,1047962.000000
1294.697830,-0.487295,344605.000000,1058320.000000
1299.232997,-0.487015,349244.000000,1071875.000000
1302.629239,-0.486989,352441.000000,1081622.000000
1306.021081,-0.486273,355144.000000,1088121.000000
1309.408522,-0.485771,357732.000000,1094784.000000
1312.791564,-0.485545,360160.000000,1101643.000000
1316.170205,-0.485871,362173.000000,1108631.000000
1319.544447,-0.485096,364403.000000,1113468.000000
1324.036591,-0.484852,366317.000000,1118687.000000
1327.400565,-0.485878,366589.000000,1122167.000000
1330.760139,-0.483658,368623.000000,1122641.000000
1334.115313,-0.484664,368498.000000,1124863.000000
1337.466087,-0.482897,370046.000000,1125000.000000
1340.812461,-0.481364,370709.000000,1123045.000000
1344.154435,-0.479196,371502.000000,1119842.000000
1348.603555,-0.475412,371615.000000,1110466.000000
1351.935262,-0.473035,370997.000000,1102569.000000
1355.262569,-0.469120,371791.000000,1095011.000000
1358.585475,-0.466354,370879.000000,1085391.000000
1361.903982,-0.464093,370539.000000,1078764.000000
1365.218088,-0.460244,371657.000000,1072472.000000
1369.630052,-0.456946,372397.000000,1066479.000000
1372.933891,-0.455387,372524.000000,1063020.000000
1376.233331,-0.453104,372314.000000,1056851.000000
1379.528370,-0.452419,371243.000000,1052149.000000
1382.819009,-0.452649,369231.000000,1047001.000000
1386.105248,-0.450433,367705.000000,1037367.000000
1389.387087,-0.448506,367073.000000,1031000.000000
1393.756027,-0.446182,365715.000000,1021703.000000
1397.027599,-0.443359,365152.000000,1013521.000000
1400.294771,-0.439944,365097.000000,1005430.000000
1403.557542,-0.436910,364333.000000,996343.000000
1406.815914,-0.432177,365413.000000,988464.000000
1410.069885,-0.426171,365734.000000,975745.000000
1413.319456,-0.422091,364947.000000,964541.000000
1417.645373,-0.413859,365539.000000,947965.000000
1420.884678,-0.408721,365230.000000,936026.000000
1424.119582,-0.402791,365533.000000,924098.000000
1427.350086,-0.399298,364906.000000,915121.000000
1430.576190,-0.394592,365583.000000,906939.000000
1433.797894,-0.390544,365648.000000,898685.000000
1437.015198,-0.387569,365698.000000,892672.000000
1441.298091,-0.384114,364890.000000,883641.000000
1444.505128,-0.381774,364741.000000,878535.000000
1447.707765,-0.379366,364393.000000,872842.000000
1450.906001,-0.377641,363044.000000,866164.000000
1454.099838,-0.375302,362635.000000,860542.000000
1457.289274,-0.372990,361653.000000,853655.000000
1461.535011,-0.369637,360303.000000,843927.000000
1464.714180,-0.367905,358064.000000,835344.000000
1467.888950,-0.365325,356949.000000,827811.000000
1471.059319,-0.362836,355912.000000,820689.000000
1474.225288,-0.360807,353737.000000,811871.000000
1477.386857,-0.357676,352477.000000,803169.000000
1480.544025,-0.358406,349693.000000,798166.000000
1484.746739,-0.355826,347943.000000,789467.000000
1487.893641,-0.357764,344781.000000,785792.000000
1491.036142,-0.357024,342531.000000,779334.000000
1494.174244,-0.357236,340170.000000,774340.000000
1497.307945,-0.358534,337701.000000,771022.000000
1500.437247,-0.359520,334446.000000,765326.000000
1503.562148,-0.361592,331876.000000,763076.000000
1507.721838,-0.365295,327918.000000,760431.000000
1510.836473,-0.366911,324967.000000,756397.000000
1513.946707,-0.369110,321718.000000,752636.000000
1517.052541,-0.369605,319073.000000,747300.000000
1520.153975,-0.372207,315575.000000,743549.000000
1523.251008,-0.374460,311252.000000,737178.000000
1527.373542,-0.374716,306492.000000,726332.000000
1530.460309,-0.374659,302471.000000,716708.000000
1533.542676,-0.374691,298873.000000,708236.000000
1536.620642,-0.375894,294593.000000,700030.000000
1539.694209,-0.375875,290524.000000,690331.000000
1542.763375,-0.376754,285805.000000,680493.000000
1545.828141,-0.376192,281854.000000,670218.000000
1549.907652,-0.378564,274841.000000,657122.000000
1552.962151,-0.379423,270515.000000,648058.000000
1556.012250,-0.380927,265203.000000,637537.000000
1559.057949,-0.381654,260042.000000,626178.000000
1562.099248,-0.380499,255973.000000,614743.000000
1565.136147,-0.381684,250523.000000,603297.000000
1568.168646,-0.381829,245616.000000,591678.000000
1572.205133,-0.382985,238774.000000,576729.000000
1575.227365,-0.382593,234179.000000,565121.000000
1578.245196,-0.384129,228934.000000,554421.000000
1581.258628,-0.386203,223478.000000,543798.000000
1584.267659,-0.387284,218239.000000,532373.000000
1587.272290,-0.387731,213357.000000,521000.000000
1591.271621,-0.389045,206678.000000,506220.000000
1594.265985,-0.392295,200655.000000,495159.000000
1597.255949,-0.393555,196105.000000,485337.000000
1600.241513,-0.394286,191413.000000,474523.000000
1603.222677,-0.395483,186271.000000,463050.000000
1606.199441,-0.397341,181567.000000,453292.000000
1609.171805,-0.398007,176656.000000,441708.000000
1613.128112,-0.399799,170106.000000,427089.000000
1616.090209,-0.400618,165195.000000,415542.000000
1619.047905,-0.402729,160661.000000,406106.000000
1622.001202,-0.405533,154762.000000,393729.000000
1624.950098,-0.408180,149284.000000,382114.000000
1627.894595,-0.408686,144304.000000,369798.000000
1630.834691,-0.413136,138573.000000,358769.000000
1634.747975,-0.413883,131373.000000,340713.000000
1637.677804,-0.412185,126061.000000,325661.000000
1640.603233,-0.409685,120043.000000,308334.000000
1643.524262,-0.408430,114222.000000,292536.000000
1646.440891,-0.402833,109595.000000,277092.000000
1649.353120,-0.398087,104146.000000,260453.000000
1653.229247,-0.369623,102337.000000,239693.000000
1656.131209,-0.358923,100118.000000,228789.000000
1659.028770,-0.359736,95076.000000,217674.000000
1661.921932,-0.346751,93881.000000,208607.000000
1664.810693,-0.349677,90392.000000,202212.000000
1667.695055,-0.358629,85969.000000,196323.000000
1670.575016,-0.360876,82225.000000,188747.000000
1674.408120,-0.345553,78925.000000,174891.000000
1677.277814,-inf,0.000000,162883.000000
1680.143108,-inf,0.000000,148757.000000
1683.004002,nan,-2147483648.000000,132664.000000
1685.860496,nan,-2147483648.000000,116608.000000
1688.712590,nan,-2147483648.000000,101288.000000
1691.560283,nan,-2147483648.000000,85756.000000
1695.350364,nan,-2147483648.000000,69250.000000
1698.187790,nan,-2147483648.000000,56630.000000
1701.020817,-inf,0.000000,47085.000000
