Method:,erol,,
Host Date-Time:,7/12/23 @ 14:13:9,,
Header Version:,1,,
System Temp (C):,40.62,,
Detector Temp (C):,27.65,,
Humidity (%):,16.36,,
Lamp PD:,3566,,
Shift Vector Coefficients:,-4.80707,0.053312,-0.000138677,,
Pixel to Wavelength Coefficients:,1763.6,-0.910608,-0.000244451,,
Serial Number:,6110061,,
Scan Config Name:,erol,,
Scan Config Type:,Slew,,
Section 1,,
Start wavelength (nm):,900,,
End wavelength (nm):,1700,,
Pattern Pixel Width (nm):,  11.71,,,,
Exposure (ms):,  0.635,,,,
Digital Resolution:,228,,
Num Repeats:,1,,
PGA Gain:,64,,
Total Measurement Time in sec:,  1.594,,
Wavelength (nm),Absorbance (AU),Reference Signal (unitless),Sample Signal (unitless)
901.370984,-0.758144,22318.000000,127879.000000
905.248306,-0.744053,26694.000000,148070.000000
909.121227,-0.735608,30240.000000,164509.000000
912.989749,-0.710542,35053.000000,179998.000000
918.140932,-0.706259,39668.000000,201697.000000
921.999187,-0.699007,44171.000000,220874.000000
925.853041,-0.693540,49463.000000,244242.000000
929.702495,-0.694459,55176.000000,273029.000000
933.547549,-0.688642,62603.000000,305659.000000
937.388203,-0.683276,70557.000000,340264.000000
941.224457,-0.675533,79215.000000,375267.000000
946.332618,-0.668867,90003.000000,419879.000000
950.158605,-0.665550,97001.000000,449083.000000
953.980191,-0.660423,104340.000000,477391.000000
957.797378,-0.656238,111157.000000,503703.000000
961.610165,-0.657033,117414.000000,533032.000000
965.418551,-0.651859,124361.000000,557883.000000
969.222537,-0.649766,131496.000000,587055.000000
974.287675,-0.647339,140925.000000,625644.000000
978.081394,-0.645927,148023.000000,655022.000000
981.870713,-0.643904,155197.000000,683577.000000
985.655632,-0.643657,162010.000000,713179.000000
989.436151,-0.639471,170019.000000,741257.000000
993.212270,-0.639824,176266.000000,769117.000000
998.240251,-0.636173,184964.000000,800313.000000
1002.006103,-0.635037,190519.000000,822196.000000
1005.767554,-0.632427,196102.000000,841219.000000
1009.524606,-0.632007,200098.000000,857531.000000
1013.277258,-0.629268,204164.000000,869455.000000
1017.025509,-0.628950,206631.000000,879318.000000
1020.769360,-0.627110,209246.000000,886680.000000
1025.754318,-0.624553,211932.000000,892790.000000
1029.487902,-0.623677,213316.000000,896809.000000
1033.217086,-0.623751,213821.000000,899086.000000
1036.941870,-0.623482,213615.000000,897663.000000
1040.662255,-0.622247,213930.000000,896435.000000
1044.378238,-0.620637,213905.000000,893013.000000
1048.089822,-0.620151,213173.000000,888963.000000
1053.031756,-0.619017,211884.000000,881282.000000
1056.733073,-0.618526,211098.000000,877021.000000
1060.429990,-0.618439,209880.000000,871787.000000
1064.122506,-0.617420,209078.000000,866419.000000
1067.810623,-0.616522,208224.000000,861098.000000
1071.494339,-0.617917,206922.000000,858468.000000
1076.399116,-0.616517,206676.000000,854686.000000
1080.072566,-0.616864,206200.000000,853401.000000
1083.741615,-0.616542,205636.000000,850435.000000
1087.406264,-0.614804,205874.000000,848018.000000
1091.066513,-0.614042,205797.000000,846215.000000
1094.722362,-0.615415,205514.000000,847728.000000
1098.373811,-0.615050,205628.000000,847486.000000
1103.235565,-0.611934,206788.000000,846174.000000
1106.876747,-0.611937,206389.000000,844547.000000
1110.513529,-0.610562,206615.000000,842798.000000
1114.145910,-0.608490,206738.000000,839287.000000
1117.773892,-0.606776,206547.000000,835208.000000
1121.397473,-0.602475,207088.000000,829143.000000
1125.016654,-0.600721,206464.000000,823313.000000
1129.835385,-0.595187,207418.000000,816645.000000
1133.444299,-0.595275,207695.000000,817901.000000
1137.048813,-0.595259,208493.000000,821013.000000
1140.648927,-0.599082,208223.000000,827201.000000
1144.244641,-0.600923,208337.000000,831170.000000
1147.835955,-0.601451,208774.000000,833926.000000
1152.617529,-0.601849,208238.000000,832547.000000
1156.198576,-0.601473,208484.000000,832810.000000
1159.775223,-0.600303,208962.000000,832474.000000
1163.347470,-0.598837,209317.000000,831077.000000
1166.915316,-0.597244,209935.000000,830479.000000
1170.478763,-0.594372,211435.000000,830900.000000
1174.037809,-0.591459,213105.000000,831865.000000
1178.776359,-0.590719,214394.000000,835471.000000
1182.325139,-0.585009,217962.000000,838282.000000
1185.869518,-0.583046,220075.000000,842590.000000
1189.409497,-0.581365,222694.000000,849324.000000
1192.945076,-0.580732,224594.000000,855323.000000
1196.476255,-0.580652,226828.000000,863672.000000
1200.003034,-0.579154,229675.000000,871501.000000
1204.698561,-0.579952,232729.000000,884713.000000
1208.215073,-0.578774,235830.000000,894073.000000
1211.727185,-0.578802,238631.000000,904751.000000
1215.234896,-0.577718,241974.000000,915138.000000
1218.738208,-0.577269,245450.000000,927325.000000
1222.237119,-0.577191,248996.000000,940553.000000
1226.895489,-0.577518,254001.000000,960182.000000
1230.384134,-0.576504,257796.000000,972254.000000
1233.868378,-0.578248,261030.000000,988414.000000
1237.348222,-0.578718,264910.000000,1004190.000000
1240.823666,-0.578866,269187.000000,1020752.000000
1244.294710,-0.577933,274535.000000,1038797.000000
1247.761354,-0.579337,278817.000000,1058415.000000
1252.376701,-0.579992,285943.000000,1087104.000000
1255.833078,-0.579117,292339.000000,1109184.000000
1259.285055,-0.578719,298387.000000,1131095.000000
1262.732632,-0.579632,303484.000000,1152838.000000
1266.175808,-0.579991,308643.000000,1173404.000000
1269.614584,-0.579433,313923.000000,1191946.000000
1273.048961,-0.578990,319097.000000,1210354.000000
1277.621284,-0.580350,324380.000000,1234252.000000
1281.045394,-0.579273,329793.000000,1251741.000000
1284.465103,-0.580671,333450.000000,1269701.000000
1287.880412,-0.581147,337104.000000,1285024.000000
1291.291321,-0.581383,340768.000000,1299697.000000
1294.697830,-0.581301,344605.000000,1314081.000000
1299.232997,-0.581874,349244.000000,1333530.000000
1302.629239,-0.581468,352441.000000,1344479.000000
1306.021081,-0.580866,355144.000000,1352914.000000
1309.408522,-0.580625,357732.000000,1362018.000000
1312.791564,-0.580089,360160.000000,1369571.000000
1316.170205,-0.580240,362173.000000,1377703.000000
1319.544447,-0.579426,364403.000000,1383591.000000
1324.036591,-0.579506,366317.000000,1391114.000000
1327.400565,-0.579954,366589.000000,1393585.000000
1330.760139,-0.578033,368623.000000,1395134.000000
1334.115313,-0.578575,368498.000000,1396402.000000
1337.466087,-0.576338,370046.000000,1395063.000000
1340.812461,-0.575135,370709.000000,1393697.000000
1344.154435,-0.572156,371502.000000,1387131.000000
1348.603555,-0.569090,371615.000000,1377792.000000
1351.935262,-0.566193,370997.000000,1366354.000000
1355.262569,-0.561889,371791.000000,1355775.000000
1358.585475,-0.559108,370879.000000,1343817.000000
1361.903982,-0.556274,370539.000000,1333853.000000
1365.218088,-0.551899,371657.000000,1324469.000000
1369.630052,-0.549069,372397.000000,1318484.000000
1372.933891,-0.547345,372524.000000,1313709.000000
1376.233331,-0.545757,372314.000000,1308177.000000
1379.528370,-0.544587,371243.000000,1300903.000000
1382.819009,-0.543627,369231.000000,1290997.000000
1386.105248,-0.542765,367705.000000,1283113.000000
1389.387087,-0.540346,367073.000000,1273791.000000
1393.756027,-0.537634,365715.000000,1261180.000000
1397.027599,-0.534965,365152.000000,1251523.000000
1400.294771,-0.530228,365097.000000,1237760.000000
1403.557542,-0.527499,364333.000000,1227433.000000
1406.815914,-0.521557,365413.000000,1214341.000000
1410.069885,-0.516661,365734.000000,1201785.000000
1413.319456,-0.511656,364947.000000,1185456.000000
1417.645373,-0.502904,365539.000000,1163691.000000
1420.884678,-0.497838,365230.000000,1149224.000000
1424.119582,-0.492298,365533.000000,1135597.000000
1427.350086,-0.488607,364906.000000,1124056.000000
1430.576190,-0.483333,365583.000000,1112549.000000
1433.797894,-0.480125,365648.000000,1104556.000000
1437.015198,-0.476092,365698.000000,1094498.000000
1441.298091,-0.473383,364890.000000,1085289.000000
1444.505128,-0.470117,364741.000000,1076716.000000
1447.707765,-0.468435,364393.000000,1071531.000000
1450.906001,-0.466518,363044.000000,1062862.000000
1454.099838,-0.463671,362635.000000,1054728.000000
1457.289274,-0.461604,361653.000000,1046879.000000
1461.535011,-0.457925,360303.000000,1034172.000000
1464.714180,-0.456675,358064.000000,1024793.000000
1467.888950,-0.453508,356949.000000,1014177.000000
1471.059319,-0.450121,355912.000000,1003376.000000
1474.225288,-0.448708,353737.000000,994004.000000
1477.386857,-0.446317,352477.000000,985026.000000
1480.544025,-0.446074,349693.000000,976699.000000
1484.746739,-0.443991,347943.000000,967161.000000
1487.893641,-0.445464,344781.000000,961629.000000
1491.036142,-0.444997,342531.000000,954326.000000
1494.174244,-0.445565,340170.000000,948989.000000
1497.307945,-0.446410,337701.000000,943935.000000
1500.437247,-0.448842,334446.000000,940086.000000
1503.562148,-0.449754,331876.000000,934823.000000
1507.721838,-0.453055,327918.000000,930723.000000
1510.836473,-0.454768,324967.000000,925991.000000
1513.946707,-0.457242,321718.000000,921972.000000
1517.052541,-0.457696,319073.000000,915347.000000
1520.153975,-0.459566,315575.000000,909219.000000
1523.251008,-0.462033,311252.000000,901873.000000
1527.373542,-0.462362,306492.000000,888754.000000
1530.460309,-0.463096,302471.000000,878577.000000
1533.542676,-0.463642,298873.000000,869218.000000
1536.620642,-0.463820,294593.000000,857122.000000
1539.694209,-0.464094,290524.000000,845816.000000
1542.763375,-0.465121,285805.000000,834048.000000
1545.828141,-0.464413,281854.000000,821177.000000
1549.907652,-0.466436,274841.000000,804484.000000
1552.962151,-0.466899,270515.000000,792666.000000
1556.012250,-0.467545,265203.000000,778258.000000
1559.057949,-0.469476,260042.000000,766513.000000
1562.099248,-0.467350,255973.000000,750835.000000
1565.136147,-0.470096,250523.000000,739510.000000
1568.168646,-0.470217,245616.000000,725227.000000
1572.205133,-0.471840,238774.000000,707664.000000
1575.227365,-0.471313,234179.000000,693204.000000
1578.245196,-0.472344,228934.000000,679288.000000
1581.258628,-0.473729,223478.000000,665218.000000
1584.267659,-0.471131,218239.000000,645748.000000
1587.272290,-0.476644,213357.000000,639368.000000
1591.271621,-0.477321,206678.000000,620319.000000
1594.265985,-0.481587,200655.000000,608187.000000
1597.255949,-0.482205,196105.000000,595242.000000
1600.241513,-0.482994,191413.000000,582057.000000
1603.222677,-0.484891,186271.000000,568901.000000
1606.199441,-0.487954,181567.000000,558459.000000
1609.171805,-0.488603,176656.000000,544166.000000
1613.128112,-0.490957,170106.000000,526837.000000
1616.090209,-0.491399,165195.000000,512149.000000
1619.047905,-0.492941,160661.000000,499864.000000
1622.001202,-0.496476,154762.000000,485445.000000
1624.950098,-0.499976,149284.000000,472051.000000
1627.894595,-0.501370,144304.000000,457771.000000
1630.834691,-0.503963,138573.000000,442223.000000
1634.747975,-0.505981,131373.000000,421199.000000
1637.677804,-0.505167,126061.000000,403411.000000
1640.603233,-0.504224,120043.000000,383319.000000
1643.524262,-0.501834,114222.000000,362730.000000
1646.440891,-0.496449,109595.000000,343748.000000
1649.353120,-0.493555,104146.000000,324487.000000
1653.229247,-0.465493,102337.000000,298900.000000
1656.131209,-0.451589,100118.000000,283205.000000
1659.028770,-0.453438,95076.000000,270090.000000
1661.921932,-0.445868,93881.000000,262087.000000
1664.810693,-0.446388,90392.000000,252649.000000
1667.695055,-0.454352,85969.000000,244734.000000
1670.575016,-0.456876,82225.000000,235440.000000
1674.408120,-0.444509,78925.000000,219646.000000
1677.277814,-inf,0.000000,203256.000000
1680.143108,-inf,0.000000,185356.000000
1683.004002,nan,-2147483648.000000,166097.000000
1685.860496,nan,-2147483648.000000,145791.000000
1688.712590,nan,-2147483648.000000,127476.000000
1691.560283,nan,-2147483648.000000,107175.000000
1695.350364,nan,-2147483648.000000,85690.000000
1698.187790,nan,-2147483648.000000,70555.000000
1701.020817,-inf,0.000000,59297.000000
