Method:,erol,,
Host Date-Time:,7/12/23 @ 14:9:6,,
Header Version:,1,,
System Temp (C):,40.21,,
Detector Temp (C):,26.54,,
Humidity (%):,17.04,,
Lamp PD:,3482,,
Shift Vector Coefficients:,-4.80707,0.053312,-0.000138677,,
Pixel to Wavelength Coefficients:,1763.6,-0.910608,-0.000244451,,
Serial Number:,6110061,,
Scan Config Name:,erol,,
Scan Config Type:,Slew,,
Section 1,,
Start wavelength (nm):,900,,
End wavelength (nm):,1700,,
Pattern Pixel Width (nm):,  11.71,,,,
Exposure (ms):,  0.635,,,,
Digital Resolution:,228,,
Num Repeats:,1,,
PGA Gain:,64,,
Total Measurement Time in sec:,  1.593,,
Wavelength (nm),Absorbance (AU),Reference Signal (unitless),Sample Signal (unitless)
901.370984,-0.687023,22318.000000,108562.000000
905.248306,-0.674002,26694.000000,126013.000000
909.121227,-0.666005,30240.000000,140148.000000
912.989749,-0.644116,35053.000000,154469.000000
918.140932,-0.636881,39668.000000,171918.000000
921.999187,-0.626816,44171.000000,187048.000000
925.853041,-0.626526,49463.000000,209318.000000
929.702495,-0.624645,55176.000000,232485.000000
933.547549,-0.619955,62603.000000,260946.000000
937.388203,-0.613716,70557.000000,289905.000000
941.224457,-0.606295,79215.000000,319965.000000
946.332618,-0.600134,90003.000000,358419.000000
950.158605,-0.598308,97001.000000,384666.000000
953.980191,-0.592145,104340.000000,407940.000000
957.797378,-0.588774,111157.000000,431232.000000
961.610165,-0.586807,117414.000000,453447.000000
965.418551,-0.583848,124361.000000,477015.000000
969.222537,-0.579892,131496.000000,499809.000000
974.287675,-0.577248,140925.000000,532397.000000
978.081394,-0.575822,148023.000000,557380.000000
981.870713,-0.573113,155197.000000,580760.000000
985.655632,-0.572623,162010.000000,605571.000000
989.436151,-0.568569,170019.000000,629603.000000
993.212270,-0.568580,176266.000000,652753.000000
998.240251,-0.564268,184964.000000,678196.000000
1002.006103,-0.562681,190519.000000,696016.000000
1005.767554,-0.560741,196102.000000,713220.000000
1009.524606,-0.559742,200098.000000,726080.000000
1013.277258,-0.556734,204164.000000,735721.000000
1017.025509,-0.557060,206631.000000,745170.000000
1020.769360,-0.555744,209246.000000,752317.000000
1025.754318,-0.553406,211932.000000,757883.000000
1029.487902,-0.552518,213316.000000,761275.000000
1033.217086,-0.551890,213821.000000,761974.000000
1036.941870,-0.552445,213615.000000,762213.000000
1040.662255,-0.550473,213930.000000,759879.000000
1044.378238,-0.549730,213905.000000,758492.000000
1048.089822,-0.548287,213173.000000,753389.000000
1053.031756,-0.548178,211884.000000,748645.000000
1056.733073,-0.546697,211098.000000,743329.000000
1060.429990,-0.546904,209880.000000,739393.000000
1064.122506,-0.545772,209078.000000,734649.000000
1067.810623,-0.545575,208224.000000,731317.000000
1071.494339,-0.546159,206922.000000,727723.000000
1076.399116,-0.544886,206676.000000,724730.000000
1080.072566,-0.545335,206200.000000,723809.000000
1083.741615,-0.545312,205636.000000,721791.000000
1087.406264,-0.544732,205874.000000,721662.000000
1091.066513,-0.543918,205797.000000,720041.000000
1094.722362,-0.545744,205514.000000,722080.000000
1098.373811,-0.545194,205628.000000,721566.000000
1103.235565,-0.542680,206788.000000,721448.000000
1106.876747,-0.544260,206389.000000,722681.000000
1110.513529,-0.544132,206615.000000,723259.000000
1114.145910,-0.544869,206738.000000,724918.000000
1117.773892,-0.544664,206547.000000,723907.000000
1121.397473,-0.543543,207088.000000,723933.000000
1125.016654,-0.545509,206464.000000,725025.000000
1129.835385,-0.543539,207418.000000,725080.000000
1133.444299,-0.543515,207695.000000,726008.000000
1137.048813,-0.541282,208493.000000,725060.000000
1140.648927,-0.541952,208223.000000,725239.000000
1144.244641,-0.541098,208337.000000,724210.000000
1147.835955,-0.539906,208774.000000,723739.000000
1152.617529,-0.540765,208238.000000,723311.000000
1156.198576,-0.539373,208484.000000,721848.000000
1159.775223,-0.537232,208962.000000,719945.000000
1163.347470,-0.537151,209317.000000,721033.000000
1166.915316,-0.535864,209935.000000,721022.000000
1170.478763,-0.533082,211435.000000,721538.000000
1174.037809,-0.530167,213105.000000,722371.000000
1178.776359,-0.527598,214394.000000,722454.000000
1182.325139,-0.521921,217962.000000,724940.000000
1185.869518,-0.518787,220075.000000,726704.000000
1189.409497,-0.515959,222694.000000,730580.000000
1192.945076,-0.514233,224594.000000,733891.000000
1196.476255,-0.513397,226828.000000,739765.000000
1200.003034,-0.510471,229675.000000,744021.000000
1204.698561,-0.509416,232729.000000,752085.000000
1208.215073,-0.507961,235830.000000,759556.000000
1211.727185,-0.507347,238631.000000,767492.000000
1215.234896,-0.506693,241974.000000,777072.000000
1218.738208,-0.505478,245450.000000,786034.000000
1222.237119,-0.504170,248996.000000,794991.000000
1226.895489,-0.503851,254001.000000,810375.000000
1230.384134,-0.503762,257796.000000,822314.000000
1233.868378,-0.504703,261030.000000,834437.000000
1237.348222,-0.504909,264910.000000,847242.000000
1240.823666,-0.504981,269187.000000,861064.000000
1244.294710,-0.504491,274535.000000,877181.000000
1247.761354,-0.505964,278817.000000,893889.000000
1252.376701,-0.506121,285943.000000,917066.000000
1255.833078,-0.505222,292339.000000,935639.000000
1259.285055,-0.505380,298387.000000,955344.000000
1262.732632,-0.505881,303484.000000,972785.000000
1266.175808,-0.506804,308643.000000,991426.000000
1269.614584,-0.506331,313923.000000,1007288.000000
1273.048961,-0.506139,319097.000000,1023439.000000
1277.621284,-0.507804,324380.000000,1044379.000000
1281.045394,-0.506403,329793.000000,1058388.000000
1284.465103,-0.507467,333450.000000,1072749.000000
1287.880412,-0.508263,337104.000000,1086494.000000
1291.291321,-0.508761,340768.000000,1099562.000000
1294.697830,-0.508209,344605.000000,1110530.000000
1299.232997,-0.508213,349244.000000,1125491.000000
1302.629239,-0.508051,352441.000000,1135371.000000
1306.021081,-0.507809,355144.000000,1143439.000000
1309.408522,-0.507632,357732.000000,1151303.000000
1312.791564,-0.506730,360160.000000,1156713.000000
1316.170205,-0.506788,362173.000000,1163332.000000
1319.544447,-0.506370,364403.000000,1169369.000000
1324.036591,-0.506421,366317.000000,1175651.000000
1327.400565,-0.506479,366589.000000,1176680.000000
1330.760139,-0.504685,368623.000000,1178332.000000
1334.115313,-0.505075,368498.000000,1178989.000000
1337.466087,-0.502601,370046.000000,1177217.000000
1340.812461,-0.501525,370709.000000,1176408.000000
1344.154435,-0.500256,371502.000000,1175484.000000
1348.603555,-0.497123,371615.000000,1167392.000000
1351.935262,-0.495176,370997.000000,1160235.000000
1355.262569,-0.491487,371791.000000,1152884.000000
1358.585475,-0.489630,370879.000000,1145150.000000
1361.903982,-0.486770,370539.000000,1136590.000000
1365.218088,-0.483019,371657.000000,1130215.000000
1369.630052,-0.479740,372397.000000,1123948.000000
1372.933891,-0.477321,372524.000000,1118085.000000
1376.233331,-0.475537,372314.000000,1112876.000000
1379.528370,-0.474242,371243.000000,1106370.000000
1382.819009,-0.473365,369231.000000,1098153.000000
1386.105248,-0.471515,367705.000000,1088967.000000
1389.387087,-0.468911,367073.000000,1080595.000000
1393.756027,-0.465304,365715.000000,1067693.000000
1397.027599,-0.460477,365152.000000,1054267.000000
1400.294771,-0.455169,365097.000000,1041304.000000
1403.557542,-0.450846,364333.000000,1028832.000000
1406.815914,-0.442912,365413.000000,1013202.000000
1410.069885,-0.434820,365734.000000,995371.000000
1413.319456,-0.427893,364947.000000,977514.000000
1417.645373,-0.414688,365539.000000,949777.000000
1420.884678,-0.406461,365230.000000,931166.000000
1424.119582,-0.397698,365533.000000,913324.000000
1427.350086,-0.390915,364906.000000,897627.000000
1430.576190,-0.384061,365583.000000,885211.000000
1433.797894,-0.377951,365648.000000,873000.000000
1437.015198,-0.372486,365698.000000,862202.000000
1441.298091,-0.367310,364890.000000,850103.000000
1444.505128,-0.363731,364741.000000,842782.000000
1447.707765,-0.360913,364393.000000,836533.000000
1450.906001,-0.359384,363044.000000,830507.000000
1454.099838,-0.355882,362635.000000,822908.000000
1457.289274,-0.354360,361653.000000,817809.000000
1461.535011,-0.350876,360303.000000,808246.000000
1464.714180,-0.349643,358064.000000,800947.000000
1467.888950,-0.346354,356949.000000,792429.000000
1471.059319,-0.344361,355912.000000,786509.000000
1474.225288,-0.343301,353737.000000,779796.000000
1477.386857,-0.341003,352477.000000,772918.000000
1480.544025,-0.342720,349693.000000,769852.000000
1484.746739,-0.341124,347943.000000,763189.000000
1487.893641,-0.343052,344781.000000,759619.000000
1491.036142,-0.343840,342531.000000,756031.000000
1494.174244,-0.344529,340170.000000,752013.000000
1497.307945,-0.345287,337701.000000,747859.000000
1500.437247,-0.348440,334446.000000,746046.000000
1503.562148,-0.349766,331876.000000,742578.000000
1507.721838,-0.353299,327918.000000,739715.000000
1510.836473,-0.355080,324967.000000,736071.000000
1513.946707,-0.357263,321718.000000,732383.000000
1517.052541,-0.358581,319073.000000,728569.000000
1520.153975,-0.360294,315575.000000,723430.000000
1523.251008,-0.362687,311252.000000,717462.000000
1527.373542,-0.364777,306492.000000,709898.000000
1530.460309,-0.365538,302471.000000,701813.000000
1533.542676,-0.366547,298873.000000,695079.000000
1536.620642,-0.366604,294593.000000,685215.000000
1539.694209,-0.367373,290524.000000,676947.000000
1542.763375,-0.368405,285805.000000,667536.000000
1545.828141,-0.368963,281854.000000,659155.000000
1549.907652,-0.370077,274841.000000,644404.000000
1552.962151,-0.370960,270515.000000,635552.000000
1556.012250,-0.372311,265203.000000,625013.000000
1559.057949,-0.373531,260042.000000,614574.000000
1562.099248,-0.372902,255973.000000,604082.000000
1565.136147,-0.373603,250523.000000,592176.000000
1568.168646,-0.374419,245616.000000,581669.000000
1572.205133,-0.376023,238774.000000,567558.000000
1575.227365,-0.376814,234179.000000,557650.000000
1578.245196,-0.377612,228934.000000,546163.000000
1581.258628,-0.380316,223478.000000,536476.000000
1584.267659,-0.380980,218239.000000,524702.000000
1587.272290,-0.382691,213357.000000,514989.000000
1591.271621,-0.383963,206678.000000,500331.000000
1594.265985,-0.387579,200655.000000,489811.000000
1597.255949,-0.388273,196105.000000,479470.000000
1600.241513,-0.390960,191413.000000,470903.000000
1603.222677,-0.393628,186271.000000,461077.000000
1606.199441,-0.397135,181567.000000,453077.000000
1609.171805,-0.399208,176656.000000,442931.000000
1613.128112,-0.402092,170106.000000,429350.000000
1616.090209,-0.404901,165195.000000,419660.000000
1619.047905,-0.405484,160661.000000,408690.000000
1622.001202,-0.411226,154762.000000,398924.000000
1624.950098,-0.415894,149284.000000,388962.000000
1627.894595,-0.419063,144304.000000,378740.000000
1630.834691,-0.425237,138573.000000,368906.000000
1634.747975,-0.430679,131373.000000,354148.000000
1637.677804,-0.436605,126061.000000,344497.000000
1640.603233,-0.445345,120043.000000,334720.000000
1643.524262,-0.452606,114222.000000,323859.000000
1646.440891,-0.457583,109595.000000,314321.000000
1649.353120,-0.465912,104146.000000,304477.000000
1653.229247,-0.453786,102337.000000,290950.000000
1656.131209,-0.447371,100118.000000,280468.000000
1659.028770,-0.451284,95076.000000,268754.000000
1661.921932,-0.440982,93881.000000,259155.000000
1664.810693,-0.437156,90392.000000,247335.000000
1667.695055,-0.437518,85969.000000,235429.000000
1670.575016,-0.433974,82225.000000,223346.000000
1674.408120,-0.412422,78925.000000,204003.000000
1677.277814,-inf,0.000000,186910.000000
1680.143108,-inf,0.000000,169492.000000
1683.004002,nan,-2147483648.000000,149603.000000
1685.860496,nan,-2147483648.000000,131229.000000
1688.712590,nan,-2147483648.000000,110554.000000
1691.560283,nan,-2147483648.000000,93553.000000
1695.350364,nan,-2147483648.000000,73403.000000
1698.187790,nan,-2147483648.000000,60712.000000
1701.020817,-inf,0.000000,51918.000000
