Method:,erol,,
Host Date-Time:,7/12/23 @ 14:9:4,,
Header Version:,1,,
System Temp (C):,40.15,,
Detector Temp (C):,26.54,,
Humidity (%):,17.04,,
Lamp PD:,3520,,
Shift Vector Coefficients:,-4.80707,0.053312,-0.000138677,,
Pixel to Wavelength Coefficients:,1763.6,-0.910608,-0.000244451,,
Serial Number:,6110061,,
Scan Config Name:,erol,,
Scan Config Type:,Slew,,
Section 1,,
Start wavelength (nm):,900,,
End wavelength (nm):,1700,,
Pattern Pixel Width (nm):,  11.71,,,,
Exposure (ms):,  0.635,,,,
Digital Resolution:,228,,
Num Repeats:,1,,
PGA Gain:,64,,
Total Measurement Time in sec:,  1.658,,
Wavelength (nm),Absorbance (AU),Reference Signal (unitless),Sample Signal (unitless)
901.370984,-0.757219,22318.000000,127607.000000
905.248306,-0.749136,26694.000000,149813.000000
909.121227,-0.739777,30240.000000,166096.000000
912.989749,-0.712632,35053.000000,180866.000000
918.140932,-0.705026,39668.000000,201125.000000
921.999187,-0.700879,44171.000000,221828.000000
925.853041,-0.694071,49463.000000,244541.000000
929.702495,-0.693093,55176.000000,272172.000000
933.547549,-0.687987,62603.000000,305198.000000
937.388203,-0.683367,70557.000000,340335.000000
941.224457,-0.675899,79215.000000,375583.000000
946.332618,-0.668821,90003.000000,419834.000000
950.158605,-0.664929,97001.000000,448441.000000
953.980191,-0.659546,104340.000000,476428.000000
957.797378,-0.655635,111157.000000,503004.000000
961.610165,-0.654290,117414.000000,529676.000000
965.418551,-0.650722,124361.000000,556425.000000
969.222537,-0.646915,131496.000000,583214.000000
974.287675,-0.643289,140925.000000,619837.000000
978.081394,-0.641283,148023.000000,648055.000000
981.870713,-0.640218,155197.000000,677799.000000
985.655632,-0.638434,162010.000000,704654.000000
989.436151,-0.633320,170019.000000,730832.000000
993.212270,-0.633424,176266.000000,757867.000000
998.240251,-0.629525,184964.000000,788156.000000
1002.006103,-0.628316,190519.000000,809570.000000
1005.767554,-0.625372,196102.000000,827664.000000
1009.524606,-0.624546,200098.000000,842925.000000
1013.277258,-0.621496,204164.000000,854034.000000
1017.025509,-0.621622,206631.000000,864605.000000
1020.769360,-0.619538,209246.000000,871356.000000
1025.754318,-0.617684,211932.000000,878781.000000
1029.487902,-0.616599,213316.000000,882313.000000
1033.217086,-0.615817,213821.000000,882810.000000
1036.941870,-0.615976,213615.000000,882283.000000
1040.662255,-0.615042,213930.000000,881685.000000
1044.378238,-0.613067,213905.000000,877582.000000
1048.089822,-0.612510,213173.000000,873459.000000
1053.031756,-0.612187,211884.000000,867532.000000
1056.733073,-0.611233,211098.000000,862417.000000
1060.429990,-0.611050,209880.000000,857079.000000
1064.122506,-0.609356,209078.000000,850481.000000
1067.810623,-0.609355,208224.000000,847005.000000
1071.494339,-0.609175,206922.000000,841360.000000
1076.399116,-0.609184,206676.000000,840376.000000
1080.072566,-0.609111,206200.000000,838301.000000
1083.741615,-0.608858,205636.000000,835521.000000
1087.406264,-0.608125,205874.000000,835077.000000
1091.066513,-0.607303,205797.000000,833186.000000
1094.722362,-0.608906,205514.000000,835118.000000
1098.373811,-0.609001,205628.000000,835763.000000
1103.235565,-0.607045,206788.000000,836702.000000
1106.876747,-0.608556,206389.000000,837998.000000
1110.513529,-0.607552,206615.000000,836977.000000
1114.145910,-0.607753,206738.000000,837864.000000
1117.773892,-0.608208,206547.000000,837966.000000
1121.397473,-0.606921,207088.000000,837676.000000
1125.016654,-0.608434,206464.000000,838067.000000
1129.835385,-0.606645,207418.000000,838478.000000
1133.444299,-0.605755,207695.000000,837878.000000
1137.048813,-0.603587,208493.000000,836910.000000
1140.648927,-0.603603,208223.000000,835857.000000
1144.244641,-0.603093,208337.000000,835333.000000
1147.835955,-0.601476,208774.000000,833973.000000
1152.617529,-0.601583,208238.000000,832037.000000
1156.198576,-0.599131,208484.000000,828331.000000
1159.775223,-0.597664,208962.000000,827430.000000
1163.347470,-0.596263,209317.000000,826167.000000
1166.915316,-0.594867,209935.000000,825947.000000
1170.478763,-0.591234,211435.000000,824919.000000
1174.037809,-0.587293,213105.000000,823923.000000
1178.776359,-0.585570,214394.000000,825624.000000
1182.325139,-0.578496,217962.000000,825803.000000
1185.869518,-0.575847,220075.000000,828739.000000
1189.409497,-0.571057,222694.000000,829403.000000
1192.945076,-0.569787,224594.000000,834036.000000
1196.476255,-0.567503,226828.000000,837915.000000
1200.003034,-0.565508,229675.000000,844543.000000
1204.698561,-0.563953,232729.000000,852715.000000
1208.215073,-0.563024,235830.000000,862229.000000
1211.727185,-0.561593,238631.000000,869601.000000
1215.234896,-0.560397,241974.000000,879358.000000
1218.738208,-0.558916,245450.000000,888954.000000
1222.237119,-0.558536,248996.000000,901008.000000
1226.895489,-0.557669,254001.000000,917285.000000
1230.384134,-0.557848,257796.000000,931375.000000
1233.868378,-0.558694,261030.000000,944896.000000
1237.348222,-0.559470,264910.000000,960657.000000
1240.823666,-0.559959,269187.000000,977267.000000
1244.294710,-0.558981,274535.000000,994441.000000
1247.761354,-0.560693,278817.000000,1013941.000000
1252.376701,-0.561391,285943.000000,1041526.000000
1255.833078,-0.561221,292339.000000,1064408.000000
1259.285055,-0.561093,298387.000000,1086108.000000
1262.732632,-0.562128,303484.000000,1107295.000000
1266.175808,-0.562589,308643.000000,1127316.000000
1269.614584,-0.562316,313923.000000,1145879.000000
1273.048961,-0.562634,319097.000000,1165618.000000
1277.621284,-0.564204,324380.000000,1189208.000000
1281.045394,-0.563016,329793.000000,1205751.000000
1284.465103,-0.564163,333450.000000,1222345.000000
1287.880412,-0.565241,337104.000000,1238811.000000
1291.291321,-0.566015,340768.000000,1254509.000000
1294.697830,-0.565985,344605.000000,1268546.000000
1299.232997,-0.566282,349244.000000,1286504.000000
1302.629239,-0.566080,352441.000000,1297677.000000
1306.021081,-0.565443,355144.000000,1305712.000000
1309.408522,-0.565569,357732.000000,1315608.000000
1312.791564,-0.564980,360160.000000,1322744.000000
1316.170205,-0.565062,362173.000000,1330387.000000
1319.544447,-0.564224,364403.000000,1335997.000000
1324.036591,-0.564627,366317.000000,1344262.000000
1327.400565,-0.564932,366589.000000,1346205.000000
1330.760139,-0.562293,368623.000000,1345474.000000
1334.115313,-0.562853,368498.000000,1346753.000000
1337.466087,-0.560370,370046.000000,1344700.000000
1340.812461,-0.559086,370709.000000,1343133.000000
1344.154435,-0.557186,371502.000000,1340131.000000
1348.603555,-0.554150,371615.000000,1331199.000000
1351.935262,-0.551888,370997.000000,1322082.000000
1355.262569,-0.548028,371791.000000,1313187.000000
1358.585475,-0.545754,370879.000000,1303124.000000
1361.903982,-0.542847,370539.000000,1293245.000000
1365.218088,-0.538922,371657.000000,1285478.000000
1369.630052,-0.535032,372397.000000,1276552.000000
1372.933891,-0.532914,372524.000000,1270775.000000
1376.233331,-0.530750,372314.000000,1263744.000000
1379.528370,-0.529620,371243.000000,1256835.000000
1382.819009,-0.528891,369231.000000,1247928.000000
1386.105248,-0.527052,367705.000000,1237519.000000
1389.387087,-0.524109,367073.000000,1227049.000000
1393.756027,-0.519575,365715.000000,1209813.000000
1397.027599,-0.515131,365152.000000,1195651.000000
1400.294771,-0.509233,365097.000000,1179347.000000
1403.557542,-0.503626,364333.000000,1161782.000000
1406.815914,-0.495162,365413.000000,1142736.000000
1410.069885,-0.487058,365734.000000,1122596.000000
1413.319456,-0.479547,364947.000000,1100974.000000
1417.645373,-0.466563,365539.000000,1070278.000000
1420.884678,-0.457968,365230.000000,1048418.000000
1424.119582,-0.449013,365533.000000,1027873.000000
1427.350086,-0.442015,364906.000000,1009709.000000
1430.576190,-0.434885,365583.000000,995109.000000
1433.797894,-0.428585,365648.000000,980953.000000
1437.015198,-0.423364,365698.000000,969363.000000
1441.298091,-0.418915,364890.000000,957364.000000
1444.505128,-0.415578,364741.000000,949647.000000
1447.707765,-0.412730,364393.000000,942541.000000
1450.906001,-0.410122,363044.000000,933429.000000
1454.099838,-0.407837,362635.000000,927485.000000
1457.289274,-0.405373,361653.000000,919741.000000
1461.535011,-0.402394,360303.000000,910043.000000
1464.714180,-0.400922,358064.000000,901328.000000
1467.888950,-0.398977,356949.000000,894505.000000
1471.059319,-0.395886,355912.000000,885581.000000
1474.225288,-0.395045,353737.000000,878467.000000
1477.386857,-0.394289,352477.000000,873816.000000
1480.544025,-0.394441,349693.000000,867218.000000
1484.746739,-0.393544,347943.000000,861097.000000
1487.893641,-0.395778,344781.000000,857673.000000
1491.036142,-0.395973,342531.000000,852458.000000
1494.174244,-0.397385,340170.000000,849338.000000
1497.307945,-0.398819,337701.000000,845962.000000
1500.437247,-0.401947,334446.000000,843866.000000
1503.562148,-0.403382,331876.000000,840151.000000
1507.721838,-0.406990,327918.000000,837057.000000
1510.836473,-0.409217,324967.000000,833790.000000
1513.946707,-0.411877,321718.000000,830525.000000
1517.052541,-0.412389,319073.000000,824667.000000
1520.153975,-0.415073,315575.000000,820684.000000
1523.251008,-0.417244,311252.000000,813498.000000
1527.373542,-0.419043,306492.000000,804381.000000
1530.460309,-0.420715,302471.000000,796891.000000
1533.542676,-0.420699,298873.000000,787382.000000
1536.620642,-0.421480,294593.000000,777503.000000
1539.694209,-0.421979,290524.000000,767646.000000
1542.763375,-0.423774,285805.000000,758305.000000
1545.828141,-0.422535,281854.000000,745691.000000
1549.907652,-0.425448,274841.000000,732031.000000
1552.962151,-0.426254,270515.000000,721848.000000
1556.012250,-0.426956,265203.000000,708818.000000
1559.057949,-0.427425,260042.000000,695774.000000
1562.099248,-0.426654,255973.000000,683673.000000
1565.136147,-0.428373,250523.000000,671770.000000
1568.168646,-0.429135,245616.000000,659769.000000
1572.205133,-0.430855,238774.000000,643935.000000
1575.227365,-0.430931,234179.000000,631654.000000
1578.245196,-0.432064,228934.000000,619119.000000
1581.258628,-0.434422,223478.000000,607654.000000
1584.267659,-0.436620,218239.000000,596420.000000
1587.272290,-0.437617,213357.000000,584419.000000
1591.271621,-0.438545,206678.000000,567334.000000
1594.265985,-0.443275,200655.000000,556833.000000
1597.255949,-0.444794,196105.000000,546113.000000
1600.241513,-0.446584,191413.000000,535249.000000
1603.222677,-0.448791,186271.000000,523523.000000
1606.199441,-0.451409,181567.000000,513388.000000
1609.171805,-0.453642,176656.000000,502077.000000
1613.128112,-0.457780,170106.000000,488090.000000
1616.090209,-0.459307,165195.000000,475668.000000
1619.047905,-0.461693,160661.000000,465161.000000
1622.001202,-0.467289,154762.000000,453893.000000
1624.950098,-0.473719,149284.000000,444357.000000
1627.894595,-0.475786,144304.000000,431583.000000
1630.834691,-0.482445,138573.000000,420846.000000
1634.747975,-0.490391,131373.000000,406347.000000
1637.677804,-0.496169,126061.000000,395139.000000
1640.603233,-0.505198,120043.000000,384180.000000
1643.524262,-0.513062,114222.000000,372230.000000
1646.440891,-0.515949,109595.000000,359534.000000
1649.353120,-0.524806,104146.000000,348697.000000
1653.229247,-0.512723,102337.000000,333239.000000
1656.131209,-0.505971,100118.000000,320984.000000
1659.028770,-0.512950,95076.000000,309757.000000
1661.921932,-0.501251,93881.000000,297734.000000
1664.810693,-0.499677,90392.000000,285632.000000
1667.695055,-0.500224,85969.000000,271998.000000
1670.575016,-0.495184,82225.000000,257151.000000
1674.408120,-0.474974,78925.000000,235607.000000
1677.277814,-inf,0.000000,217073.000000
1680.143108,-inf,0.000000,196017.000000
1683.004002,nan,-2147483648.000000,173433.000000
1685.860496,nan,-2147483648.000000,150213.000000
1688.712590,nan,-2147483648.000000,129892.000000
1691.560283,nan,-2147483648.000000,109483.000000
1695.350364,nan,-2147483648.000000,86692.000000
1698.187790,nan,-2147483648.000000,73091.000000
1701.020817,-inf,0.000000,60869.000000
