Method:,erol,,
Host Date-Time:,7/12/23 @ 14:8:59,,
Header Version:,1,,
System Temp (C):,40.21,,
Detector Temp (C):,25.6,,
Humidity (%):,17.04,,
Lamp PD:,3493,,
Shift Vector Coefficients:,-4.80707,0.053312,-0.000138677,,
Pixel to Wavelength Coefficients:,1763.6,-0.910608,-0.000244451,,
Serial Number:,6110061,,
Scan Config Name:,erol,,
Scan Config Type:,Slew,,
Section 1,,
Start wavelength (nm):,900,,
End wavelength (nm):,1700,,
Pattern Pixel Width (nm):,  11.71,,,,
Exposure (ms):,  0.635,,,,
Digital Resolution:,228,,
Num Repeats:,1,,
PGA Gain:,64,,
Total Measurement Time in sec:,  1.592,,
Wavelength (nm),Absorbance (AU),Reference Signal (unitless),Sample Signal (unitless)
901.370984,-0.766965,22318.000000,130503.000000
905.248306,-0.756132,26694.000000,152246.000000
909.121227,-0.746996,30240.000000,168880.000000
912.989749,-0.721862,35053.000000,184751.000000
918.140932,-0.716469,39668.000000,206495.000000
921.999187,-0.708387,44171.000000,225696.000000
925.853041,-0.702370,49463.000000,249259.000000
929.702495,-0.701508,55176.000000,277497.000000
933.547549,-0.696518,62603.000000,311253.000000
937.388203,-0.690920,70557.000000,346306.000000
941.224457,-0.684705,79215.000000,383277.000000
946.332618,-0.676879,90003.000000,427697.000000
950.158605,-0.675591,97001.000000,459586.000000
953.980191,-0.668383,104340.000000,486221.000000
957.797378,-0.664991,111157.000000,513958.000000
961.610165,-0.664019,117414.000000,541675.000000
965.418551,-0.660480,124361.000000,569068.000000
969.222537,-0.656430,131496.000000,596132.000000
974.287675,-0.654079,140925.000000,635429.000000
978.081394,-0.652359,148023.000000,664796.000000
981.870713,-0.650957,155197.000000,694769.000000
985.655632,-0.648902,162010.000000,721844.000000
989.436151,-0.645386,170019.000000,751421.000000
993.212270,-0.645519,176266.000000,779269.000000
998.240251,-0.642032,184964.000000,811183.000000
1002.006103,-0.641012,190519.000000,833585.000000
1005.767554,-0.638146,196102.000000,852369.000000
1009.524606,-0.637712,200098.000000,868869.000000
1013.277258,-0.636107,204164.000000,883255.000000
1017.025509,-0.636075,206631.000000,893861.000000
1020.769360,-0.634451,209246.000000,901796.000000
1025.754318,-0.632676,211932.000000,909646.000000
1029.487902,-0.631156,213316.000000,912387.000000
1033.217086,-0.631434,213821.000000,915133.000000
1036.941870,-0.631399,213615.000000,914177.000000
1040.662255,-0.630958,213930.000000,914597.000000
1044.378238,-0.628668,213905.000000,909680.000000
1048.089822,-0.629277,213173.000000,907840.000000
1053.031756,-0.627647,211884.000000,898970.000000
1056.733073,-0.627480,211098.000000,895291.000000
1060.429990,-0.626584,209880.000000,888291.000000
1064.122506,-0.625874,209078.000000,883451.000000
1067.810623,-0.625138,208224.000000,878352.000000
1071.494339,-0.625911,206922.000000,874416.000000
1076.399116,-0.625048,206676.000000,871642.000000
1080.072566,-0.624951,206200.000000,869441.000000
1083.741615,-0.625673,205636.000000,868505.000000
1087.406264,-0.624340,205874.000000,866845.000000
1091.066513,-0.623417,205797.000000,864681.000000
1094.722362,-0.624580,205514.000000,865807.000000
1098.373811,-0.625032,205628.000000,867189.000000
1103.235565,-0.623072,206788.000000,868155.000000
1106.876747,-0.623464,206389.000000,867262.000000
1110.513529,-0.623341,206615.000000,867966.000000
1114.145910,-0.623108,206738.000000,868018.000000
1117.773892,-0.624166,206547.000000,869331.000000
1121.397473,-0.622860,207088.000000,868990.000000
1125.016654,-0.623935,206464.000000,868520.000000
1129.835385,-0.622407,207418.000000,869468.000000
1133.444299,-0.622138,207695.000000,870089.000000
1137.048813,-0.620566,208493.000000,870277.000000
1140.648927,-0.620392,208223.000000,868801.000000
1144.244641,-0.619242,208337.000000,866979.000000
1147.835955,-0.617381,208774.000000,865083.000000
1152.617529,-0.617456,208238.000000,863011.000000
1156.198576,-0.616084,208484.000000,861305.000000
1159.775223,-0.614008,208962.000000,859162.000000
1163.347470,-0.612517,209317.000000,857672.000000
1166.915316,-0.610920,209935.000000,857047.000000
1170.478763,-0.607965,211435.000000,857318.000000
1174.037809,-0.604022,213105.000000,856279.000000
1178.776359,-0.602052,214394.000000,857560.000000
1182.325139,-0.594697,217962.000000,857192.000000
1185.869518,-0.591068,220075.000000,858300.000000
1189.409497,-0.587195,222694.000000,860803.000000
1192.945076,-0.585379,224594.000000,864524.000000
1196.476255,-0.582592,226828.000000,867538.000000
1200.003034,-0.581023,229675.000000,875259.000000
1204.698561,-0.579558,232729.000000,883910.000000
1208.215073,-0.577441,235830.000000,891333.000000
1211.727185,-0.576345,238631.000000,899646.000000
1215.234896,-0.575248,241974.000000,909949.000000
1218.738208,-0.573712,245450.000000,919762.000000
1222.237119,-0.573579,248996.000000,932764.000000
1226.895489,-0.572424,254001.000000,948986.000000
1230.384134,-0.572530,257796.000000,963399.000000
1233.868378,-0.574281,261030.000000,979425.000000
1237.348222,-0.574864,264910.000000,995320.000000
1240.823666,-0.574966,269187.000000,1011626.000000
1244.294710,-0.574324,274535.000000,1030200.000000
1247.761354,-0.576646,278817.000000,1051877.000000
1252.376701,-0.577254,285943.000000,1080272.000000
1255.833078,-0.576698,292339.000000,1103023.000000
1259.285055,-0.576682,298387.000000,1125802.000000
1262.732632,-0.578145,303484.000000,1148896.000000
1266.175808,-0.578479,308643.000000,1169326.000000
1269.614584,-0.578698,313923.000000,1189930.000000
1273.048961,-0.578761,319097.000000,1209717.000000
1277.621284,-0.580374,324380.000000,1234320.000000
1281.045394,-0.579858,329793.000000,1253428.000000
1284.465103,-0.581151,333450.000000,1271107.000000
1287.880412,-0.581455,337104.000000,1285936.000000
1291.291321,-0.581994,340768.000000,1301526.000000
1294.697830,-0.582416,344605.000000,1317459.000000
1299.232997,-0.582770,349244.000000,1336286.000000
1302.629239,-0.582482,352441.000000,1347624.000000
1306.021081,-0.582361,355144.000000,1357581.000000
1309.408522,-0.581783,357732.000000,1365653.000000
1312.791564,-0.581282,360160.000000,1373337.000000
1316.170205,-0.581433,362173.000000,1381493.000000
1319.544447,-0.580476,364403.000000,1386942.000000
1324.036591,-0.580084,366317.000000,1392968.000000
1327.400565,-0.580606,366589.000000,1395680.000000
1330.760139,-0.578202,368623.000000,1395677.000000
1334.115313,-0.577939,368498.000000,1394356.000000
1337.466087,-0.575927,370046.000000,1393742.000000
1340.812461,-0.574106,370709.000000,1390398.000000
1344.154435,-0.571205,371502.000000,1384097.000000
1348.603555,-0.568256,371615.000000,1375148.000000
1351.935262,-0.565648,370997.000000,1364642.000000
1355.262569,-0.561130,371791.000000,1353408.000000
1358.585475,-0.558414,370879.000000,1341671.000000
1361.903982,-0.555193,370539.000000,1330537.000000
1365.218088,-0.550710,371657.000000,1320846.000000
1369.630052,-0.546974,372397.000000,1312140.000000
1372.933891,-0.544279,372524.000000,1304468.000000
1376.233331,-0.542555,372314.000000,1298566.000000
1379.528370,-0.540971,371243.000000,1290119.000000
1382.819009,-0.540053,369231.000000,1280416.000000
1386.105248,-0.538123,367705.000000,1269469.000000
1389.387087,-0.534315,367073.000000,1256226.000000
1393.756027,-0.529803,365715.000000,1238641.000000
1397.027599,-0.525453,365152.000000,1224410.000000
1400.294771,-0.519336,365097.000000,1207102.000000
1403.557542,-0.513505,364333.000000,1188512.000000
1406.815914,-0.505165,365413.000000,1169361.000000
1410.069885,-0.496303,365734.000000,1146748.000000
1413.319456,-0.488142,364947.000000,1122980.000000
1417.645373,-0.474799,365539.000000,1090769.000000
1420.884678,-0.466090,365230.000000,1068209.000000
1424.119582,-0.457053,365533.000000,1047080.000000
1427.350086,-0.449588,364906.000000,1027470.000000
1430.576190,-0.442518,365583.000000,1012754.000000
1433.797894,-0.436251,365648.000000,998421.000000
1437.015198,-0.430681,365698.000000,985833.000000
1441.298091,-0.426192,364890.000000,973540.000000
1444.505128,-0.422148,364741.000000,964123.000000
1447.707765,-0.419314,364393.000000,956938.000000
1450.906001,-0.417329,363044.000000,949048.000000
1454.099838,-0.414583,362635.000000,942005.000000
1457.289274,-0.412435,361653.000000,934817.000000
1461.535011,-0.408827,360303.000000,923623.000000
1464.714180,-0.408034,358064.000000,916210.000000
1467.888950,-0.404820,356949.000000,906621.000000
1471.059319,-0.402732,355912.000000,899653.000000
1474.225288,-0.401183,353737.000000,890971.000000
1477.386857,-0.400097,352477.000000,885580.000000
1480.544025,-0.400270,349693.000000,878936.000000
1484.746739,-0.399569,347943.000000,873126.000000
1487.893641,-0.401653,344781.000000,869354.000000
1491.036142,-0.401915,342531.000000,864202.000000
1494.174244,-0.403356,340170.000000,861096.000000
1497.307945,-0.405030,337701.000000,858148.000000
1500.437247,-0.406576,334446.000000,852908.000000
1503.562148,-0.408588,331876.000000,850284.000000
1507.721838,-0.412153,327918.000000,847067.000000
1510.836473,-0.413845,324967.000000,842721.000000
1513.946707,-0.416940,321718.000000,840263.000000
1517.052541,-0.417579,319073.000000,834583.000000
1520.153975,-0.419806,315575.000000,829676.000000
1523.251008,-0.422328,311252.000000,823076.000000
1527.373542,-0.423318,306492.000000,812338.000000
1530.460309,-0.425065,302471.000000,804913.000000
1533.542676,-0.425124,298873.000000,795446.000000
1536.620642,-0.426717,294593.000000,786936.000000
1539.694209,-0.426479,290524.000000,775642.000000
1542.763375,-0.427468,285805.000000,764783.000000
1545.828141,-0.427794,281854.000000,754777.000000
1549.907652,-0.429327,274841.000000,738599.000000
1552.962151,-0.429475,270515.000000,727221.000000
1556.012250,-0.431574,265203.000000,716395.000000
1559.057949,-0.432377,260042.000000,703753.000000
1562.099248,-0.431410,255973.000000,691201.000000
1565.136147,-0.432296,250523.000000,677866.000000
1568.168646,-0.432863,245616.000000,665457.000000
1572.205133,-0.434628,238774.000000,649553.000000
1575.227365,-0.434958,234179.000000,637538.000000
1578.245196,-0.435819,228934.000000,624496.000000
1581.258628,-0.439211,223478.000000,614392.000000
1584.267659,-0.439684,218239.000000,600643.000000
1587.272290,-0.442099,213357.000000,590481.000000
1591.271621,-0.444032,206678.000000,574548.000000
1594.265985,-0.448405,200655.000000,563450.000000
1597.255949,-0.450018,196105.000000,552722.000000
1600.241513,-0.451211,191413.000000,540981.000000
1603.222677,-0.453822,186271.000000,529624.000000
1606.199441,-0.456341,181567.000000,519252.000000
1609.171805,-0.460013,176656.000000,509497.000000
1613.128112,-0.463518,170106.000000,494581.000000
1616.090209,-0.466778,165195.000000,483921.000000
1619.047905,-0.468440,160661.000000,472444.000000
1622.001202,-0.473413,154762.000000,460339.000000
1624.950098,-0.479834,149284.000000,450658.000000
1627.894595,-0.483281,144304.000000,439096.000000
1630.834691,-0.489586,138573.000000,427823.000000
1634.747975,-0.496870,131373.000000,412455.000000
1637.677804,-0.503778,126061.000000,402123.000000
1640.603233,-0.510752,120043.000000,389125.000000
1643.524262,-0.519589,114222.000000,377867.000000
1646.440891,-0.523611,109595.000000,365933.000000
1649.353120,-0.531442,104146.000000,354066.000000
1653.229247,-0.521211,102337.000000,339816.000000
1656.131209,-0.513666,100118.000000,326722.000000
1659.028770,-0.520233,95076.000000,314995.000000
1661.921932,-0.508944,93881.000000,303055.000000
1664.810693,-0.506193,90392.000000,289950.000000
1667.695055,-0.507443,85969.000000,276557.000000
1670.575016,-0.502805,82225.000000,261703.000000
1674.408120,-0.482519,78925.000000,239736.000000
1677.277814,-inf,0.000000,220101.000000
1680.143108,-inf,0.000000,199443.000000
1683.004002,nan,-2147483648.000000,176551.000000
1685.860496,nan,-2147483648.000000,153898.000000
1688.712590,nan,-2147483648.000000,131126.000000
1691.560283,nan,-2147483648.000000,110621.000000
1695.350364,nan,-2147483648.000000,87340.000000
1698.187790,nan,-2147483648.000000,73129.000000
1701.020817,-inf,0.000000,61508.000000
