Method:,erol,,
Host Date-Time:,7/12/23 @ 14:11:9,,
Header Version:,1,,
System Temp (C):,40.5,,
Detector Temp (C):,26.41,,
Humidity (%):,16.86,,
Lamp PD:,3539,,
Shift Vector Coefficients:,-4.80707,0.053312,-0.000138677,,
Pixel to Wavelength Coefficients:,1763.6,-0.910608,-0.000244451,,
Serial Number:,6110061,,
Scan Config Name:,erol,,
Scan Config Type:,Slew,,
Section 1,,
Start wavelength (nm):,900,,
End wavelength (nm):,1700,,
Pattern Pixel Width (nm):,  11.71,,,,
Exposure (ms):,  0.635,,,,
Digital Resolution:,228,,
Num Repeats:,1,,
PGA Gain:,64,,
Total Measurement Time in sec:,  1.591,,
Wavelength (nm),Absorbance (AU),Reference Signal (unitless),Sample Signal (unitless)
901.370984,-0.749043,22318.000000,125227.000000
905.248306,-0.735373,26694.000000,145140.000000
909.121227,-0.731619,30240.000000,163005.000000
912.989749,-0.703520,35053.000000,177111.000000
918.140932,-0.695221,39668.000000,196635.000000
921.999187,-0.691058,44171.000000,216868.000000
925.853041,-0.685918,49463.000000,239993.000000
929.702495,-0.685598,55176.000000,267515.000000
933.547549,-0.679735,62603.000000,299454.000000
937.388203,-0.675443,70557.000000,334182.000000
941.224457,-0.667471,79215.000000,368365.000000
946.332618,-0.661288,90003.000000,412615.000000
950.158605,-0.657361,97001.000000,440694.000000
953.980191,-0.652117,104340.000000,468347.000000
957.797378,-0.647846,111157.000000,494064.000000
961.610165,-0.646886,117414.000000,520722.000000
965.418551,-0.642946,124361.000000,546551.000000
969.222537,-0.639775,131496.000000,573703.000000
974.287675,-0.636402,140925.000000,610085.000000
978.081394,-0.634910,148023.000000,638615.000000
981.870713,-0.633334,155197.000000,667140.000000
985.655632,-0.632388,162010.000000,694912.000000
989.436151,-0.628160,170019.000000,722200.000000
993.212270,-0.627911,176266.000000,748306.000000
998.240251,-0.625194,184964.000000,780335.000000
1002.006103,-0.623706,190519.000000,801022.000000
1005.767554,-0.620794,196102.000000,818986.000000
1009.524606,-0.620201,200098.000000,834533.000000
1013.277258,-0.617714,204164.000000,846630.000000
1017.025509,-0.617728,206631.000000,856886.000000
1020.769360,-0.616515,209246.000000,865310.000000
1025.754318,-0.614681,211932.000000,872725.000000
1029.487902,-0.612969,213316.000000,874968.000000
1033.217086,-0.612816,213821.000000,876730.000000
1036.941870,-0.613194,213615.000000,876650.000000
1040.662255,-0.611598,213930.000000,874721.000000
1044.378238,-0.610587,213905.000000,872586.000000
1048.089822,-0.610128,213173.000000,868680.000000
1053.031756,-0.609586,211884.000000,862351.000000
1056.733073,-0.608372,211098.000000,856753.000000
1060.429990,-0.608117,209880.000000,851311.000000
1064.122506,-0.607408,209078.000000,846675.000000
1067.810623,-0.607641,208224.000000,843668.000000
1071.494339,-0.607284,206922.000000,837704.000000
1076.399116,-0.606654,206676.000000,835496.000000
1080.072566,-0.606639,206200.000000,833543.000000
1083.741615,-0.606839,205636.000000,831645.000000
1087.406264,-0.605308,205874.000000,829677.000000
1091.066513,-0.604927,205797.000000,828641.000000
1094.722362,-0.606568,205514.000000,830633.000000
1098.373811,-0.606079,205628.000000,830158.000000
1103.235565,-0.604001,206788.000000,830857.000000
1106.876747,-0.604626,206389.000000,830449.000000
1110.513529,-0.604462,206615.000000,831044.000000
1114.145910,-0.604602,206738.000000,831806.000000
1117.773892,-0.605406,206547.000000,832578.000000
1121.397473,-0.604745,207088.000000,833489.000000
1125.016654,-0.605718,206464.000000,832841.000000
1129.835385,-0.603873,207418.000000,833142.000000
1133.444299,-0.603316,207695.000000,833186.000000
1137.048813,-0.601030,208493.000000,831997.000000
1140.648927,-0.601587,208223.000000,831986.000000
1144.244641,-0.600906,208337.000000,831136.000000
1147.835955,-0.599242,208774.000000,829695.000000
1152.617529,-0.598700,208238.000000,826532.000000
1156.198576,-0.597962,208484.000000,826104.000000
1159.775223,-0.596153,208962.000000,824556.000000
1163.347470,-0.595258,209317.000000,824256.000000
1166.915316,-0.593327,209935.000000,823023.000000
1170.478763,-0.590057,211435.000000,822686.000000
1174.037809,-0.586586,213105.000000,822583.000000
1178.776359,-0.584322,214394.000000,823255.000000
1182.325139,-0.577651,217962.000000,824198.000000
1185.869518,-0.574407,220075.000000,825995.000000
1189.409497,-0.571410,222694.000000,830077.000000
1192.945076,-0.569152,224594.000000,832819.000000
1196.476255,-0.567423,226828.000000,837761.000000
1200.003034,-0.564864,229675.000000,843291.000000
1204.698561,-0.563043,232729.000000,850929.000000
1208.215073,-0.562158,235830.000000,860512.000000
1211.727185,-0.561163,238631.000000,868741.000000
1215.234896,-0.559871,241974.000000,878293.000000
1218.738208,-0.559006,245450.000000,889137.000000
1222.237119,-0.558873,248996.000000,901706.000000
1226.895489,-0.557218,254001.000000,916334.000000
1230.384134,-0.557700,257796.000000,931056.000000
1233.868378,-0.558551,261030.000000,944586.000000
1237.348222,-0.558922,264910.000000,959446.000000
1240.823666,-0.559527,269187.000000,976296.000000
1244.294710,-0.559118,274535.000000,994754.000000
1247.761354,-0.560761,278817.000000,1014098.000000
1252.376701,-0.561285,285943.000000,1041273.000000
1255.833078,-0.561042,292339.000000,1063969.000000
1259.285055,-0.560908,298387.000000,1085646.000000
1262.732632,-0.561845,303484.000000,1106574.000000
1266.175808,-0.562042,308643.000000,1125896.000000
1269.614584,-0.562415,313923.000000,1146140.000000
1273.048961,-0.562163,319097.000000,1164357.000000
1277.621284,-0.563559,324380.000000,1187445.000000
1281.045394,-0.563321,329793.000000,1206598.000000
1284.465103,-0.564625,333450.000000,1223645.000000
1287.880412,-0.564712,337104.000000,1237302.000000
1291.291321,-0.565615,340768.000000,1253354.000000
1294.697830,-0.565385,344605.000000,1266797.000000
1299.232997,-0.565876,349244.000000,1285301.000000
1302.629239,-0.565456,352441.000000,1295812.000000
1306.021081,-0.564997,355144.000000,1304373.000000
1309.408522,-0.564719,357732.000000,1313036.000000
1312.791564,-0.564616,360160.000000,1321635.000000
1316.170205,-0.564800,362173.000000,1329584.000000
1319.544447,-0.563782,364403.000000,1334640.000000
1324.036591,-0.563607,366317.000000,1341110.000000
1327.400565,-0.563781,366589.000000,1342642.000000
1330.760139,-0.561511,368623.000000,1343054.000000
1334.115313,-0.561511,368498.000000,1342598.000000
1337.466087,-0.559434,370046.000000,1341805.000000
1340.812461,-0.558038,370709.000000,1339896.000000
1344.154435,-0.556028,371502.000000,1336561.000000
1348.603555,-0.552776,371615.000000,1326995.000000
1351.935262,-0.550434,370997.000000,1317662.000000
1355.262569,-0.545858,371791.000000,1306642.000000
1358.585475,-0.543653,370879.000000,1296838.000000
1361.903982,-0.541143,370539.000000,1288180.000000
1365.218088,-0.536892,371657.000000,1279481.000000
1369.630052,-0.532822,372397.000000,1270072.000000
1372.933891,-0.530610,372524.000000,1264051.000000
1376.233331,-0.528143,372314.000000,1256182.000000
1379.528370,-0.527177,371243.000000,1249785.000000
1382.819009,-0.526321,369231.000000,1240563.000000
1386.105248,-0.523836,367705.000000,1228389.000000
1389.387087,-0.521032,367073.000000,1218386.000000
1393.756027,-0.516042,365715.000000,1200009.000000
1397.027599,-0.511179,365152.000000,1184820.000000
1400.294771,-0.505796,365097.000000,1170049.000000
1403.557542,-0.500146,364333.000000,1152510.000000
1406.815914,-0.491345,365413.000000,1132738.000000
1410.069885,-0.482770,365734.000000,1111566.000000
1413.319456,-0.474599,364947.000000,1088502.000000
1417.645373,-0.461258,365539.000000,1057284.000000
1420.884678,-0.452019,365230.000000,1034155.000000
1424.119582,-0.443412,365533.000000,1014702.000000
1427.350086,-0.436207,364906.000000,996296.000000
1430.576190,-0.428200,365583.000000,979909.000000
1433.797894,-0.422065,365648.000000,966336.000000
1437.015198,-0.416862,365698.000000,954959.000000
1441.298091,-0.412436,364890.000000,943187.000000
1444.505128,-0.408578,364741.000000,934465.000000
1447.707765,-0.405166,364393.000000,926267.000000
1450.906001,-0.403430,363044.000000,919156.000000
1454.099838,-0.400360,362635.000000,911654.000000
1457.289274,-0.397725,361653.000000,903684.000000
1461.535011,-0.395270,360303.000000,895236.000000
1464.714180,-0.393769,358064.000000,886604.000000
1467.888950,-0.391006,356949.000000,878238.000000
1471.059319,-0.388158,355912.000000,869963.000000
1474.225288,-0.387182,353737.000000,862705.000000
1477.386857,-0.386154,352477.000000,857601.000000
1480.544025,-0.386652,349693.000000,851803.000000
1484.746739,-0.385885,347943.000000,846044.000000
1487.893641,-0.387537,344781.000000,841550.000000
1491.036142,-0.388380,342531.000000,837684.000000
1494.174244,-0.389416,340170.000000,833897.000000
1497.307945,-0.390040,337701.000000,829034.000000
1500.437247,-0.392391,334446.000000,825500.000000
1503.562148,-0.394897,331876.000000,823896.000000
1507.721838,-0.398433,327918.000000,820727.000000
1510.836473,-0.400883,324967.000000,817941.000000
1513.946707,-0.403123,321718.000000,813952.000000
1517.052541,-0.403634,319073.000000,808210.000000
1520.153975,-0.406173,315575.000000,804036.000000
1523.251008,-0.408480,311252.000000,797245.000000
1527.373542,-0.409627,306492.000000,787130.000000
1530.460309,-0.411436,302471.000000,780046.000000
1533.542676,-0.411721,298873.000000,771273.000000
1536.620642,-0.412785,294593.000000,762092.000000
1539.694209,-0.412358,290524.000000,750828.000000
1542.763375,-0.412976,285805.000000,739684.000000
1545.828141,-0.413330,281854.000000,730052.000000
1549.907652,-0.415980,274841.000000,716245.000000
1552.962151,-0.414833,270515.000000,703112.000000
1556.012250,-0.416482,265203.000000,691928.000000
1559.057949,-0.417760,260042.000000,680461.000000
1562.099248,-0.416301,255973.000000,667567.000000
1565.136147,-0.417793,250523.000000,655603.000000
1568.168646,-0.418424,245616.000000,643696.000000
1572.205133,-0.419793,238774.000000,627740.000000
1575.227365,-0.420136,234179.000000,616147.000000
1578.245196,-0.420595,228934.000000,602983.000000
1581.258628,-0.423397,223478.000000,592423.000000
1584.267659,-0.424255,218239.000000,579679.000000
1587.272290,-0.425557,213357.000000,568413.000000
1591.271621,-0.427417,206678.000000,552982.000000
1594.265985,-0.431641,200655.000000,542114.000000
1597.255949,-0.432697,196105.000000,531112.000000
1600.241513,-0.434879,191413.000000,521015.000000
1603.222677,-0.438310,186271.000000,511040.000000
1606.199441,-0.438672,181567.000000,498550.000000
1609.171805,-0.442883,176656.000000,489792.000000
1613.128112,-0.444926,170106.000000,473855.000000
1616.090209,-0.446728,165195.000000,462088.000000
1619.047905,-0.449181,160661.000000,451951.000000
1622.001202,-0.456033,154762.000000,442280.000000
1624.950098,-0.461179,149284.000000,431710.000000
1627.894595,-0.463414,144304.000000,419462.000000
1630.834691,-0.470606,138573.000000,409529.000000
1634.747975,-0.477179,131373.000000,394171.000000
1637.677804,-0.482088,126061.000000,382533.000000
1640.603233,-0.490658,120043.000000,371531.000000
1643.524262,-0.499927,114222.000000,361141.000000
1646.440891,-0.504085,109595.000000,349845.000000
1649.353120,-0.512319,104146.000000,338814.000000
1653.229247,-0.500519,102337.000000,324005.000000
1656.131209,-0.492875,100118.000000,311449.000000
1659.028770,-0.499311,95076.000000,300180.000000
1661.921932,-0.489413,93881.000000,289728.000000
1664.810693,-0.485630,90392.000000,276541.000000
1667.695055,-0.485351,85969.000000,262841.000000
1670.575016,-0.482905,82225.000000,249982.000000
1674.408120,-0.460604,78925.000000,227939.000000
1677.277814,-inf,0.000000,209449.000000
1680.143108,-inf,0.000000,189044.000000
1683.004002,nan,-2147483648.000000,166342.000000
1685.860496,nan,-2147483648.000000,146426.000000
1688.712590,nan,-2147483648.000000,124461.000000
1691.560283,nan,-2147483648.000000,105213.000000
1695.350364,nan,-2147483648.000000,81439.000000
1698.187790,nan,-2147483648.000000,68097.000000
1701.020817,-inf,0.000000,58305.000000
