Method:,erol,,
Host Date-Time:,7/12/23 @ 14:9:28,,
Header Version:,1,,
System Temp (C):,40.25,,
Detector Temp (C):,27.94,,
Humidity (%):,16.95,,
Lamp PD:,3479,,
Shift Vector Coefficients:,-4.80707,0.053312,-0.000138677,,
Pixel to Wavelength Coefficients:,1763.6,-0.910608,-0.000244451,,
Serial Number:,6110061,,
Scan Config Name:,erol,,
Scan Config Type:,Slew,,
Section 1,,
Start wavelength (nm):,900,,
End wavelength (nm):,1700,,
Pattern Pixel Width (nm):,  11.71,,,,
Exposure (ms):,  0.635,,,,
Digital Resolution:,228,,
Num Repeats:,1,,
PGA Gain:,64,,
Total Measurement Time in sec:,  1.593,,
Wavelength (nm),Absorbance (AU),Reference Signal (unitless),Sample Signal (unitless)
901.370984,-0.684535,22318.000000,107942.000000
905.248306,-0.673974,26694.000000,126005.000000
909.121227,-0.664776,30240.000000,139752.000000
912.989749,-0.635263,35053.000000,151352.000000
918.140932,-0.633034,39668.000000,170402.000000
921.999187,-0.624481,44171.000000,186045.000000
925.853041,-0.619648,49463.000000,206029.000000
929.702495,-0.617191,55176.000000,228529.000000
933.547549,-0.610500,62603.000000,255326.000000
937.388203,-0.606192,70557.000000,284926.000000
941.224457,-0.597613,79215.000000,313632.000000
946.332618,-0.589692,90003.000000,349904.000000
950.158605,-0.587246,97001.000000,374992.000000
953.980191,-0.582015,104340.000000,398534.000000
957.797378,-0.578242,111157.000000,420900.000000
961.610165,-0.576474,117414.000000,442786.000000
965.418551,-0.571738,124361.000000,463898.000000
969.222537,-0.568846,131496.000000,487258.000000
974.287675,-0.565221,140925.000000,517856.000000
978.081394,-0.562992,148023.000000,541154.000000
981.870713,-0.561803,155197.000000,565831.000000
985.655632,-0.560620,162010.000000,589063.000000
989.436151,-0.556268,170019.000000,612020.000000
993.212270,-0.554990,176266.000000,632643.000000
998.240251,-0.552630,184964.000000,660263.000000
1002.006103,-0.550992,190519.000000,677533.000000
1005.767554,-0.548790,196102.000000,693861.000000
1009.524606,-0.547748,200098.000000,706302.000000
1013.277258,-0.545457,204164.000000,716863.000000
1017.025509,-0.545273,206631.000000,725218.000000
1020.769360,-0.544338,209246.000000,732817.000000
1025.754318,-0.541479,211932.000000,737353.000000
1029.487902,-0.540350,213316.000000,740242.000000
1033.217086,-0.540351,213821.000000,741995.000000
1036.941870,-0.539757,213615.000000,740268.000000
1040.662255,-0.538304,213930.000000,738883.000000
1044.378238,-0.537671,213905.000000,737721.000000
1048.089822,-0.537694,213173.000000,735235.000000
1053.031756,-0.536915,211884.000000,729479.000000
1056.733073,-0.535541,211098.000000,724478.000000
1060.429990,-0.535292,209880.000000,719885.000000
1064.122506,-0.535023,209078.000000,716690.000000
1067.810623,-0.533705,208224.000000,711600.000000
1071.494339,-0.535086,206922.000000,709402.000000
1076.399116,-0.533608,206676.000000,706151.000000
1080.072566,-0.533212,206200.000000,703883.000000
1083.741615,-0.534491,205636.000000,704028.000000
1087.406264,-0.532871,205874.000000,702219.000000
1091.066513,-0.531730,205797.000000,700114.000000
1094.722362,-0.533445,205514.000000,701918.000000
1098.373811,-0.533209,205628.000000,701926.000000
1103.235565,-0.531055,206788.000000,702393.000000
1106.876747,-0.531668,206389.000000,702028.000000
1110.513529,-0.531692,206615.000000,702835.000000
1114.145910,-0.531390,206738.000000,702765.000000
1117.773892,-0.532723,206547.000000,704274.000000
1121.397473,-0.530946,207088.000000,703236.000000
1125.016654,-0.532435,206464.000000,703525.000000
1129.835385,-0.530866,207418.000000,704227.000000
1133.444299,-0.530139,207695.000000,703988.000000
1137.048813,-0.528381,208493.000000,703837.000000
1140.648927,-0.529435,208223.000000,704634.000000
1144.244641,-0.528611,208337.000000,703683.000000
1147.835955,-0.527687,208774.000000,703661.000000
1152.617529,-0.527626,208238.000000,701755.000000
1156.198576,-0.527488,208484.000000,702362.000000
1159.775223,-0.525944,208962.000000,701474.000000
1163.347470,-0.525491,209317.000000,701932.000000
1166.915316,-0.524626,209935.000000,702604.000000
1170.478763,-0.521162,211435.000000,702003.000000
1174.037809,-0.519105,213105.000000,704204.000000
1178.776359,-0.517555,214394.000000,705939.000000
1182.325139,-0.511231,217962.000000,707314.000000
1185.869518,-0.509396,220075.000000,711159.000000
1189.409497,-0.506223,222694.000000,714384.000000
1192.945076,-0.505532,224594.000000,719334.000000
1196.476255,-0.502966,226828.000000,722208.000000
1200.003034,-0.502201,229675.000000,729987.000000
1204.698561,-0.500967,232729.000000,737594.000000
1208.215073,-0.499779,235830.000000,745381.000000
1211.727185,-0.499989,238631.000000,754598.000000
1215.234896,-0.498897,241974.000000,763248.000000
1218.738208,-0.497652,245450.000000,771996.000000
1222.237119,-0.497006,248996.000000,781985.000000
1226.895489,-0.496243,254001.000000,796304.000000
1230.384134,-0.496394,257796.000000,808482.000000
1233.868378,-0.497264,261030.000000,820265.000000
1237.348222,-0.497436,264910.000000,832787.000000
1240.823666,-0.497564,269187.000000,846482.000000
1244.294710,-0.496114,274535.000000,860422.000000
1247.761354,-0.497819,278817.000000,877281.000000
1252.376701,-0.498834,285943.000000,901806.000000
1255.833078,-0.497069,292339.000000,918239.000000
1259.285055,-0.496802,298387.000000,936659.000000
1262.732632,-0.497927,303484.000000,955130.000000
1266.175808,-0.498150,308643.000000,971865.000000
1269.614584,-0.497511,313923.000000,987039.000000
1273.048961,-0.497008,319097.000000,1002145.000000
1277.621284,-0.498501,324380.000000,1022245.000000
1281.045394,-0.497470,329793.000000,1036840.000000
1284.465103,-0.498291,333450.000000,1050321.000000
1287.880412,-0.498820,337104.000000,1063125.000000
1291.291321,-0.499297,340768.000000,1075859.000000
1294.697830,-0.499106,344605.000000,1087496.000000
1299.232997,-0.498519,349244.000000,1100647.000000
1302.629239,-0.498547,352441.000000,1110793.000000
1306.021081,-0.497853,355144.000000,1117526.000000
1309.408522,-0.497583,357732.000000,1124970.000000
1312.791564,-0.497051,360160.000000,1131218.000000
1316.170205,-0.497484,362173.000000,1138677.000000
1319.544447,-0.496645,364403.000000,1143476.000000
1324.036591,-0.496868,366317.000000,1150072.000000
1327.400565,-0.497522,366589.000000,1152660.000000
1330.760139,-0.495963,368623.000000,1154903.000000
1334.115313,-0.496140,368498.000000,1154982.000000
1337.466087,-0.494462,370046.000000,1155362.000000
1340.812461,-0.493060,370709.000000,1153700.000000
1344.154435,-0.491440,371502.000000,1151865.000000
1348.603555,-0.490003,371615.000000,1148408.000000
1351.935262,-0.488364,370997.000000,1142179.000000
1355.262569,-0.485294,371791.000000,1136561.000000
1358.585475,-0.484243,370879.000000,1131033.000000
1361.903982,-0.481959,370539.000000,1124068.000000
1365.218088,-0.478946,371657.000000,1119666.000000
1369.630052,-0.476112,372397.000000,1114599.000000
1372.933891,-0.474694,372524.000000,1111343.000000
1376.233331,-0.472254,372314.000000,1104495.000000
1379.528370,-0.471578,371243.000000,1099604.000000
1382.819009,-0.471339,369231.000000,1093043.000000
1386.105248,-0.469938,367705.000000,1085019.000000
1389.387087,-0.466868,367073.000000,1075525.000000
1393.756027,-0.464416,365715.000000,1065514.000000
1397.027599,-0.460749,365152.000000,1054927.000000
1400.294771,-0.456608,365097.000000,1044759.000000
1403.557542,-0.453159,364333.000000,1034326.000000
1406.815914,-0.446541,365413.000000,1021703.000000
1410.069885,-0.440448,365734.000000,1008354.000000
1413.319456,-0.435510,364947.000000,994810.000000
1417.645373,-0.426163,365539.000000,975207.000000
1420.884678,-0.419215,365230.000000,958917.000000
1424.119582,-0.412513,365533.000000,945017.000000
1427.350086,-0.407431,364906.000000,932420.000000
1430.576190,-0.402124,365583.000000,922805.000000
1433.797894,-0.396593,365648.000000,911290.000000
1437.015198,-0.392880,365698.000000,903655.000000
1441.298091,-0.389004,364890.000000,893646.000000
1444.505128,-0.386255,364741.000000,887645.000000
1447.707765,-0.384306,364393.000000,882827.000000
1450.906001,-0.383250,363044.000000,877423.000000
1454.099838,-0.380439,362635.000000,870780.000000
1457.289274,-0.379211,361653.000000,865971.000000
1461.535011,-0.376581,360303.000000,857530.000000
1464.714180,-0.376656,358064.000000,852347.000000
1467.888950,-0.375031,356949.000000,846520.000000
1471.059319,-0.373484,355912.000000,841060.000000
1474.225288,-0.373524,353737.000000,835996.000000
1477.386857,-0.372314,352477.000000,830702.000000
1480.544025,-0.373790,349693.000000,826945.000000
1484.746739,-0.373520,347943.000000,822296.000000
1487.893641,-0.375794,344781.000000,819100.000000
1491.036142,-0.377380,342531.000000,816732.000000
1494.174244,-0.378017,340170.000000,812294.000000
1497.307945,-0.379751,337701.000000,809624.000000
1500.437247,-0.382318,334446.000000,806573.000000
1503.562148,-0.383361,331876.000000,802300.000000
1507.721838,-0.386699,327918.000000,798848.000000
1510.836473,-0.388597,324967.000000,795126.000000
1513.946707,-0.390742,321718.000000,791074.000000
1517.052541,-0.391906,319073.000000,786677.000000
1520.153975,-0.393353,315575.000000,780649.000000
1523.251008,-0.396279,311252.000000,775159.000000
1527.373542,-0.397918,306492.000000,766192.000000
1530.460309,-0.398457,302471.000000,757079.000000
1533.542676,-0.399053,298873.000000,749099.000000
1536.620642,-0.400349,294593.000000,740579.000000
1539.694209,-0.401206,290524.000000,731793.000000
1542.763375,-0.402337,285805.000000,721783.000000
1545.828141,-0.401117,281854.000000,709809.000000
1549.907652,-0.402807,274841.000000,694846.000000
1552.962151,-0.403162,270515.000000,684469.000000
1556.012250,-0.403985,265203.000000,672300.000000
1559.057949,-0.404184,260042.000000,659519.000000
1562.099248,-0.403343,255973.000000,647943.000000
1565.136147,-0.404547,250523.000000,635908.000000
1568.168646,-0.404357,245616.000000,623180.000000
1572.205133,-0.405713,238774.000000,607715.000000
1575.227365,-0.405343,234179.000000,595513.000000
1578.245196,-0.407583,228934.000000,585185.000000
1581.258628,-0.409405,223478.000000,573641.000000
1584.267659,-0.410802,218239.000000,561998.000000
1587.272290,-0.411736,213357.000000,550609.000000
1591.271621,-0.412489,206678.000000,534298.000000
1594.265985,-0.416127,200655.000000,523091.000000
1597.255949,-0.416868,196105.000000,512102.000000
1600.241513,-0.417071,191413.000000,500083.000000
1603.222677,-0.418960,186271.000000,488771.000000
1606.199441,-0.419808,181567.000000,477359.000000
1609.171805,-0.421075,176656.000000,465804.000000
1613.128112,-0.424960,170106.000000,452564.000000
1616.090209,-0.425380,165195.000000,439923.000000
1619.047905,-0.426093,160661.000000,428552.000000
1622.001202,-0.430141,154762.000000,416683.000000
1624.950098,-0.433829,149284.000000,405361.000000
1627.894595,-0.437036,144304.000000,394743.000000
1630.834691,-0.441721,138573.000000,383177.000000
1634.747975,-0.449215,131373.000000,369591.000000
1637.677804,-0.454016,126061.000000,358589.000000
1640.603233,-0.460732,120043.000000,346792.000000
1643.524262,-0.469888,114222.000000,337006.000000
1646.440891,-0.469538,109595.000000,323094.000000
1649.353120,-0.478853,104146.000000,313686.000000
1653.229247,-0.466558,102337.000000,299634.000000
1656.131209,-0.459619,100118.000000,288490.000000
1659.028770,-0.462871,95076.000000,276021.000000
1661.921932,-0.451575,93881.000000,265554.000000
1664.810693,-0.450691,90392.000000,255165.000000
1667.695055,-0.449612,85969.000000,242077.000000
1670.575016,-0.446282,82225.000000,229766.000000
1674.408120,-0.425207,78925.000000,210098.000000
1677.277814,-inf,0.000000,193259.000000
1680.143108,-inf,0.000000,174400.000000
1683.004002,nan,-2147483648.000000,154740.000000
1685.860496,nan,-2147483648.000000,135499.000000
1688.712590,nan,-2147483648.000000,116689.000000
1691.560283,nan,-2147483648.000000,99066.000000
1695.350364,nan,-2147483648.000000,78263.000000
1698.187790,nan,-2147483648.000000,65735.000000
1701.020817,-inf,0.000000,54374.000000
