Method:,erol,,
Host Date-Time:,7/12/23 @ 14:10:46,,
Header Version:,1,,
System Temp (C):,40.43,,
Detector Temp (C):,25.89,,
Humidity (%):,16.85,,
Lamp PD:,3526,,
Shift Vector Coefficients:,-4.80707,0.053312,-0.000138677,,
Pixel to Wavelength Coefficients:,1763.6,-0.910608,-0.000244451,,
Serial Number:,6110061,,
Scan Config Name:,erol,,
Scan Config Type:,Slew,,
Section 1,,
Start wavelength (nm):,900,,
End wavelength (nm):,1700,,
Pattern Pixel Width (nm):,  11.71,,,,
Exposure (ms):,  0.635,,,,
Digital Resolution:,228,,
Num Repeats:,1,,
PGA Gain:,64,,
Total Measurement Time in sec:,  1.656,,
Wavelength (nm),Absorbance (AU),Reference Signal (unitless),Sample Signal (unitless)
901.370984,-0.724755,22318.000000,118416.000000
905.248306,-0.715500,26694.000000,138648.000000
909.121227,-0.705354,30240.000000,153439.000000
912.989749,-0.678462,35053.000000,167181.000000
918.140932,-0.671835,39668.000000,186327.000000
921.999187,-0.664950,44171.000000,204215.000000
925.853041,-0.660556,49463.000000,226379.000000
929.702495,-0.659104,55176.000000,251683.000000
933.547549,-0.652613,62603.000000,281325.000000
937.388203,-0.649551,70557.000000,314841.000000
941.224457,-0.641985,79215.000000,347370.000000
946.332618,-0.635107,90003.000000,388476.000000
950.158605,-0.632127,97001.000000,415818.000000
953.980191,-0.625812,104340.000000,440822.000000
957.797378,-0.623836,111157.000000,467490.000000
961.610165,-0.623007,117414.000000,492864.000000
965.418551,-0.619339,124361.000000,517635.000000
969.222537,-0.616757,131496.000000,544088.000000
974.287675,-0.614864,140925.000000,580566.000000
978.081394,-0.613035,148023.000000,607245.000000
981.870713,-0.612165,155197.000000,635401.000000
985.655632,-0.611869,162010.000000,662843.000000
989.436151,-0.607641,170019.000000,688872.000000
993.212270,-0.607904,176266.000000,714615.000000
998.240251,-0.605143,184964.000000,745126.000000
1002.006103,-0.604858,190519.000000,767001.000000
1005.767554,-0.602079,196102.000000,784443.000000
1009.524606,-0.602120,200098.000000,800502.000000
1013.277258,-0.600497,204164.000000,813722.000000
1017.025509,-0.600706,206631.000000,823951.000000
1020.769360,-0.598833,209246.000000,830787.000000
1025.754318,-0.598344,211932.000000,840505.000000
1029.487902,-0.596685,213316.000000,842768.000000
1033.217086,-0.596290,213821.000000,843995.000000
1036.941870,-0.597150,213615.000000,844854.000000
1040.662255,-0.595786,213930.000000,843447.000000
1044.378238,-0.595180,213905.000000,842172.000000
1048.089822,-0.595368,213173.000000,839654.000000
1053.031756,-0.594003,211884.000000,831958.000000
1056.733073,-0.594475,211098.000000,829772.000000
1060.429990,-0.594027,209880.000000,824134.000000
1064.122506,-0.593708,209078.000000,820383.000000
1067.810623,-0.592866,208224.000000,815449.000000
1071.494339,-0.593010,206922.000000,810618.000000
1076.399116,-0.592082,206676.000000,807927.000000
1080.072566,-0.591903,206200.000000,805734.000000
1083.741615,-0.592299,205636.000000,804264.000000
1087.406264,-0.591807,205874.000000,804282.000000
1091.066513,-0.591393,205797.000000,803215.000000
1094.722362,-0.592918,205514.000000,804933.000000
1098.373811,-0.593028,205628.000000,805583.000000
1103.235565,-0.590347,206788.000000,805142.000000
1106.876747,-0.591222,206389.000000,805208.000000
1110.513529,-0.591283,206615.000000,806204.000000
1114.145910,-0.591380,206738.000000,806864.000000
1117.773892,-0.591661,206547.000000,806640.000000
1121.397473,-0.591156,207088.000000,807813.000000
1125.016654,-0.592679,206464.000000,808208.000000
1129.835385,-0.590275,207418.000000,807460.000000
1133.444299,-0.589940,207695.000000,807916.000000
1137.048813,-0.587921,208493.000000,807259.000000
1140.648927,-0.587550,208223.000000,805525.000000
1144.244641,-0.586343,208337.000000,803728.000000
1147.835955,-0.583546,208774.000000,800244.000000
1152.617529,-0.583901,208238.000000,798843.000000
1156.198576,-0.581716,208484.000000,795772.000000
1159.775223,-0.579616,208962.000000,793750.000000
1163.347470,-0.577824,209317.000000,791824.000000
1166.915316,-0.575317,209935.000000,789590.000000
1170.478763,-0.572549,211435.000000,790179.000000
1174.037809,-0.568205,213105.000000,788495.000000
1178.776359,-0.566527,214394.000000,790204.000000
1182.325139,-0.558453,217962.000000,788559.000000
1185.869518,-0.555545,220075.000000,790890.000000
1189.409497,-0.550685,222694.000000,791396.000000
1192.945076,-0.548644,224594.000000,794405.000000
1196.476255,-0.546280,226828.000000,797951.000000
1200.003034,-0.544203,229675.000000,804113.000000
1204.698561,-0.542932,232729.000000,812423.000000
1208.215073,-0.540680,235830.000000,818990.000000
1211.727185,-0.539632,238631.000000,826721.000000
1215.234896,-0.538887,241974.000000,836865.000000
1218.738208,-0.537531,245450.000000,846241.000000
1222.237119,-0.537444,248996.000000,858295.000000
1226.895489,-0.536344,254001.000000,873333.000000
1230.384134,-0.536570,257796.000000,886842.000000
1233.868378,-0.537930,261030.000000,900784.000000
1237.348222,-0.538418,264910.000000,915200.000000
1240.823666,-0.539425,269187.000000,932136.000000
1244.294710,-0.539421,274535.000000,950646.000000
1247.761354,-0.541225,278817.000000,969492.000000
1252.376701,-0.542174,285943.000000,996446.000000
1255.833078,-0.542193,292339.000000,1018779.000000
1259.285055,-0.543076,298387.000000,1041971.000000
1262.732632,-0.543998,303484.000000,1062022.000000
1266.175808,-0.545175,308643.000000,1083008.000000
1269.614584,-0.544988,313923.000000,1101060.000000
1273.048961,-0.545110,319097.000000,1119522.000000
1277.621284,-0.547651,324380.000000,1144736.000000
1281.045394,-0.546976,329793.000000,1162030.000000
1284.465103,-0.548343,333450.000000,1178620.000000
1287.880412,-0.549073,337104.000000,1193541.000000
1291.291321,-0.549855,340768.000000,1208687.000000
1294.697830,-0.550401,344605.000000,1223834.000000
1299.232997,-0.550179,349244.000000,1239676.000000
1302.629239,-0.550517,352441.000000,1251996.000000
1306.021081,-0.550409,355144.000000,1261285.000000
1309.408522,-0.549920,357732.000000,1269047.000000
1312.791564,-0.549193,360160.000000,1275524.000000
1316.170205,-0.549700,362173.000000,1284151.000000
1319.544447,-0.548876,364403.000000,1289610.000000
1324.036591,-0.548225,366317.000000,1294439.000000
1327.400565,-0.548410,366589.000000,1295953.000000
1330.760139,-0.545934,368623.000000,1295736.000000
1334.115313,-0.545970,368498.000000,1295404.000000
1337.466087,-0.543543,370046.000000,1293596.000000
1340.812461,-0.542110,370709.000000,1291644.000000
1344.154435,-0.538950,371502.000000,1285025.000000
1348.603555,-0.535763,371615.000000,1276017.000000
1351.935262,-0.532954,370997.000000,1265680.000000
1355.262569,-0.528204,371791.000000,1254592.000000
1358.585475,-0.525696,370879.000000,1244308.000000
1361.903982,-0.521760,370539.000000,1231952.000000
1365.218088,-0.517229,371657.000000,1222844.000000
1369.630052,-0.513499,372397.000000,1214801.000000
1372.933891,-0.511071,372524.000000,1208441.000000
1376.233331,-0.508610,372314.000000,1200934.000000
1379.528370,-0.506707,371243.000000,1192244.000000
1382.819009,-0.506309,369231.000000,1184698.000000
1386.105248,-0.503949,367705.000000,1173406.000000
1389.387087,-0.500073,367073.000000,1160981.000000
1393.756027,-0.494823,365715.000000,1142789.000000
1397.027599,-0.489927,365152.000000,1128238.000000
1400.294771,-0.483434,365097.000000,1111327.000000
1403.557542,-0.477406,364333.000000,1093717.000000
1406.815914,-0.467434,365413.000000,1072058.000000
1410.069885,-0.458464,365734.000000,1051064.000000
1413.319456,-0.449287,364947.000000,1026874.000000
1417.645373,-0.435269,365539.000000,995871.000000
1420.884678,-0.425570,365230.000000,973054.000000
1424.119582,-0.415945,365533.000000,952514.000000
1427.350086,-0.407987,364906.000000,933615.000000
1430.576190,-0.399850,365583.000000,917985.000000
1433.797894,-0.394010,365648.000000,905886.000000
1437.015198,-0.387990,365698.000000,893538.000000
1441.298091,-0.382622,364890.000000,880610.000000
1444.505128,-0.379307,364741.000000,873557.000000
1447.707765,-0.375762,364393.000000,865630.000000
1450.906001,-0.373825,363044.000000,858586.000000
1454.099838,-0.371558,362635.000000,853154.000000
1457.289274,-0.368761,361653.000000,845382.000000
1461.535011,-0.365563,360303.000000,836048.000000
1464.714180,-0.363815,358064.000000,827514.000000
1467.888950,-0.361623,356949.000000,820784.000000
1471.059319,-0.359034,355912.000000,813536.000000
1474.225288,-0.357799,353737.000000,806269.000000
1477.386857,-0.356428,352477.000000,800864.000000
1480.544025,-0.357306,349693.000000,796146.000000
1484.746739,-0.356131,347943.000000,790021.000000
1487.893641,-0.358307,344781.000000,786775.000000
1491.036142,-0.358778,342531.000000,782489.000000
1494.174244,-0.360325,340170.000000,779868.000000
1497.307945,-0.362022,337701.000000,777239.000000
1500.437247,-0.364783,334446.000000,774656.000000
1503.562148,-0.366426,331876.000000,771617.000000
1507.721838,-0.370628,327918.000000,769828.000000
1510.836473,-0.372596,324967.000000,766364.000000
1513.946707,-0.375832,321718.000000,764376.000000
1517.052541,-0.376913,319073.000000,759981.000000
1520.153975,-0.379155,315575.000000,755541.000000
1523.251008,-0.381724,311252.000000,749612.000000
1527.373542,-0.382843,306492.000000,740051.000000
1530.460309,-0.384271,302471.000000,732749.000000
1533.542676,-0.384577,298873.000000,724542.000000
1536.620642,-0.386472,294593.000000,717290.000000
1539.694209,-0.386915,290524.000000,708104.000000
1542.763375,-0.387717,285805.000000,697889.000000
1545.828141,-0.386780,281854.000000,686758.000000
1549.907652,-0.389546,274841.000000,673949.000000
1552.962151,-0.389624,270515.000000,663461.000000
1556.012250,-0.390930,265203.000000,652392.000000
1559.057949,-0.392872,260042.000000,642562.000000
1562.099248,-0.392440,255973.000000,631879.000000
1565.136147,-0.393464,250523.000000,619886.000000
1568.168646,-0.393658,245616.000000,608015.000000
1572.205133,-0.394688,238774.000000,592482.000000
1575.227365,-0.395860,234179.000000,582650.000000
1578.245196,-0.397315,228934.000000,571512.000000
1581.258628,-0.400246,223478.000000,561669.000000
1584.267659,-0.402254,218239.000000,551044.000000
1587.272290,-0.402931,213357.000000,539558.000000
1591.271621,-0.405753,206678.000000,526075.000000
1594.265985,-0.409650,200655.000000,515347.000000
1597.255949,-0.412327,196105.000000,506776.000000
1600.241513,-0.413932,191413.000000,496482.000000
1603.222677,-0.417163,186271.000000,486753.000000
1606.199441,-0.420066,181567.000000,477643.000000
1609.171805,-0.422894,176656.000000,467759.000000
1613.128112,-0.426264,170106.000000,453925.000000
1616.090209,-0.430637,165195.000000,445281.000000
1619.047905,-0.433507,160661.000000,435931.000000
1622.001202,-0.439060,154762.000000,425328.000000
1624.950098,-0.444473,149284.000000,415419.000000
1627.894595,-0.448805,144304.000000,405586.000000
1630.834691,-0.455241,138573.000000,395293.000000
1634.747975,-0.462891,131373.000000,381414.000000
1637.677804,-0.468965,126061.000000,371147.000000
1640.603233,-0.477562,120043.000000,360495.000000
1643.524262,-0.485824,114222.000000,349602.000000
1646.440891,-0.490465,109595.000000,339044.000000
1649.353120,-0.500717,104146.000000,329883.000000
1653.229247,-0.488828,102337.000000,315399.000000
1656.131209,-0.483674,100118.000000,304920.000000
1659.028770,-0.490821,95076.000000,294369.000000
1661.921932,-0.476908,93881.000000,281505.000000
1664.810693,-0.475163,90392.000000,269956.000000
1667.695055,-0.477651,85969.000000,258222.000000
1670.575016,-0.471866,82225.000000,243708.000000
1674.408120,-0.452424,78925.000000,223686.000000
1677.277814,-inf,0.000000,206493.000000
1680.143108,-inf,0.000000,185653.000000
1683.004002,nan,-2147483648.000000,163174.000000
1685.860496,nan,-2147483648.000000,142905.000000
1688.712590,nan,-2147483648.000000,121036.000000
1691.560283,nan,-2147483648.000000,102187.000000
1695.350364,nan,-2147483648.000000,81450.000000
1698.187790,nan,-2147483648.000000,67846.000000
1701.020817,-inf,0.000000,56954.000000
